**HEADER
RELEASE   Release of TYDEX-Format                 1.3
MEASID    Measurement ID                          cvert_2p7_13fz342_P00cam0_G07_dP90_110198_02
SUPPLIER  Data Supplier                           ika-fka / SteiReP / friederichs
DATE      Date                                    30/01/20
CLCKTIME  Clocktime                               14:07

**COMMENTS
------------------------------------
Bridgestone Potenza S001 MO 245/50R18 100W DOT4918
Vertical tyre stiffness on flat surface on longitudinal cleat at 0 deg camber
------------------------------------

**CONSTANTS
LOCATION  Location                      -         ika-fka, Aachen
MANUFACT  Tyre brand name               -         Bridgestone
IDENTITY  Commercial name               -         Potenza S001 MO
INFLPRES  Inflation Pressure            bar       2.7
TYREMASS  Tyre mass                     kg        11.95
OVALLDIA  Measured outside diameter     m         0.708
NOMDIAME  Nominal diameter of tyre      m         0.7022
NOMWIDTH  Nominal section width of tyre m         0.245
ASPRATIO  Nominal aspect ratio          -         0.5
SPEEDSYM  Speed symbol                  -         W
LOADIND   Load index                    -         100
TYROTIN   Tyre rot. inertia about YC    kgm2      1.233
RIMDIAME  Nominal rim diameter          m         0.4572
RIMWIDTH  Rim width                     m         0.2032
RIMROTIN  Rim rotational inertia        kgm2      0.386
TESTRIG   Test rig                      -         Stiffness Tyre Test Rig
CURVTRSF  Curvature of track surface    1/m       0
TRCKSURF  Surface of Track              -         Korund P80
TRCKCOND  Condition of Track Surface    -         dry
OBSTTYPE  Type of obstacle              -         G07
OBSTSURF  Surface of obstacle           -         Steel
CLEAT_H   Cleat height                  m         0.01
CLEAT_L   Cleat length                  m         0.02
CLT_BVED  Cleat bevel edge              m         0.002
CLT_ORI   Cleat orientation             deg       90
SLIPANGL  Slip angle                    deg       0
INCLANGL  Inclination angle             deg       0
LONGVEL   Longitudinal velocity         m/s       0

**MEASURCHANNELS
RUNTIME   Running Time                  s         1         0         0
FZW       Vertical Force                N         1         0         0
INCLANGL  Inclination angle             deg       1         0         0
TYREDEFW  Tyre deflection               mm        1         0         0
DSTGRWHC  Dist. ground - WHL. centre    mm        1         0         0
TRDTEMP   Tread Surface Temperature     deg C     1         0         0

**MEASURDATA
0         -2.93042  0.0111324 -0.0493928 354.041   22.6646   
0.1       9.70633   0.0111324 0.163602  353.828   22.6537   
0.2       30.1323   0.0111324 0.365875  353.626   22.6623   
0.3       55.1267   0.0111324 0.539238  353.452   22.6627   
0.4       72.4641   0.0111324 0.691686  353.3     22.6664   
0.5       87.8508   0.0111324 0.836193  353.155   22.631    
0.6       107.121   0.0111324 0.989331  353.002   22.6481   
0.7       127.535   0.0111324 1.14703   352.844   22.6584   
0.8       144.599   0.0111324 1.30658   352.685   22.6665   
0.9       166.634   0.0111324 1.50049   352.491   22.6484   
1         192.605   0.0111324 1.73401   352.257   22.6548   
1.1       224.349   0.0111324 1.98518   352.006   22.6641   
1.2       261.353   0.0111324 2.25637   351.735   22.6596   
1.3       292.292   0.0111324 2.52703   351.464   22.6579   
1.4       327.697   0.0111324 2.81393   351.177   22.6566   
1.5       369.937   0.0111324 3.10091   350.891   22.6635   
1.6       404.982   0.0111324 3.38888   350.603   22.6613   
1.7       447.109   0.0111324 3.68537   350.306   22.6616   
1.8       485.718   0.0111324 3.98118   350.01    22.6568   
1.9       523.051   0.0111324 4.2711    349.72    22.6553   
2         559.31    0.0111324 4.57065   349.421   22.666    
2.1       603.94    0.0111324 4.886     349.105   22.6483   
2.2       640.84    0.0111324 5.19335   348.798   22.6614   
2.3       686.369   0.0111324 5.50449   348.487   22.664    
2.4       731.178   0.0111324 5.80743   348.184   22.6665   
2.5       772.266   0.0111324 6.11712   347.874   22.6513   
2.6       815.253   0.0111324 6.42301   347.568   22.6536   
2.7       857.494   0.0111324 6.72346   347.268   22.6572   
2.8       900.762   0.0111324 7.03001   346.961   22.6676   
2.9       938.258   0.0111324 7.32397   346.667   22.6548   
3         983.414   0.0111324 7.61954   346.372   22.6612   
3.1       1022.65   0.0111324 7.91643   346.075   22.6476   
3.2       1070.72   0.0111324 8.21308   345.778   22.6541   
3.3       1109.47   0.0111324 8.49308   345.498   22.653    
3.4       1146.85   0.0111324 8.79059   345.201   22.6573   
3.5       1192.39   0.0111324 9.09575   344.896   22.6674   
3.6       1235.59   0.0111324 9.40039   344.591   22.6598   
3.7       1280.04   0.0111324 9.69962   344.292   22.6542   
3.8       1323.09   0.0111324 9.9913    344       22.6612   
3.9       1365.3    0.0111324 10.2838   343.708   22.6594   
4         1401.42   0.0111324 10.5691   343.422   22.6558   
4.1       1441.63   0.0111324 10.8607   343.131   22.6698   
4.2       1486.04   0.0111324 11.1441   342.847   22.6494   
4.3       1527.82   0.0111324 11.4308   342.561   22.6581   
4.4       1571.53   0.0111324 11.7195   342.272   22.6606   
4.5       1610.57   0.0111324 12.0124   341.979   22.6682   
4.6       1653.9    0.0111324 12.3032   341.688   22.6663   
4.7       1698.71   0.0111324 12.5891   341.402   22.6613   
4.8       1739.67   0.0111324 12.8718   341.12    22.6639   
4.9       1778.78   0.0111324 13.1559   340.835   22.6513   
5         1826.49   0.0111324 13.4334   340.558   22.6621   
5.1       1862.2    0.0111324 13.7058   340.286   22.6689   
5.2       1906.23   0.0111324 13.9849   340.006   22.6533   
5.3       1944.64   0.0111324 14.2493   339.742   22.6487   
5.4       1982.61   0.0111324 14.523    339.468   22.6664   
5.5       2025.57   0.0111324 14.7967   339.195   22.6663   
5.6       2061.89   0.0111324 15.0711   338.92    22.6651   
5.7       2099.99   0.0111324 15.344    338.647   22.6693   
5.8       2143.47   0.0111324 15.6222   338.369   22.6567   
5.9       2183.76   0.0111324 15.8928   338.099   22.6229   
6         2223.79   0.0111322 16.1671   337.824   22.6599   
6.1       2263.9    0.0111326 16.4468   337.545   22.6588   
6.2       2307.09   0.0111319 16.7168   337.275   22.6577   
6.3       2348.73   0.011133  16.9882   337.003   22.6552   
6.4       2386.33   0.0111312 17.2596   336.732   22.6637   
6.5       2429.56   0.0111341 17.5192   336.472   22.6581   
6.6       2468.65   0.0111295 17.7744   336.217   22.669    
6.7       2506.25   0.011137  18.0383   335.953   22.6613   
6.8       2547.6    0.0111231 18.2979   335.693   22.6626   
6.9       2596.21   0.0112037 18.5573   335.434   22.6637   
7         2648.31   0.011257  18.8125   335.179   22.6653   
7.1       2697.83   0.0112439 19.0448   334.947   22.6617   
7.2       2752.11   0.0112511 19.2665   334.725   22.6617   
7.3       2800.15   0.0112466 19.4638   334.528   22.6579   
7.4       2838.86   0.0112495 19.6459   334.345   22.6669   
7.5       2885.06   0.0112477 19.8326   334.159   22.6594   
7.6       2925.01   0.0112488 20.0036   333.988   22.655    
7.7       2960.33   0.0112481 20.1703   333.821   22.6658   
7.8       3002.11   0.0112485 20.355    333.636   22.6638   
7.9       3049.97   0.0112483 20.5239   333.468   22.6637   
8         3085.53   0.0112483 20.6894   333.302   22.6628   
8.1       3126.26   0.0112483 20.8575   333.134   22.6555   
8.2       3169.3    0.0112483 21.0283   332.963   22.6632   
8.3       3208.9    0.0112483 21.1904   332.801   22.6353   
8.4       3247.26   0.0112483 21.3519   332.64    22.5712   
8.5       3293.78   0.0112483 21.524    332.467   22.6461   
8.6       3333.92   0.0112483 21.6925   332.299   22.6664   
8.7       3376.24   0.0112483 21.8624   332.129   22.6331   
8.8       3414.83   0.0112483 22.0252   331.966   22.663    
8.9       3457.18   0.0112483 22.1915   331.8     22.6607   
9         3494.06   0.0112483 22.3596   331.632   22.6568   
9.1       3539.57   0.0112483 22.5286   331.463   22.6617   
9.2       3583.72   0.0112483 22.685    331.306   22.6704   
9.3       3620.06   0.0112483 22.8425   331.149   22.653    
9.4       3654.87   0.0112483 23.0073   330.984   22.6181   
9.5       3703.31   0.0112483 23.1675   330.824   22.6639   
9.6       3740.24   0.0112483 23.3192   330.672   22.6619   
9.7       3777.18   0.0112483 23.475    330.516   22.6715   
9.8       3818.85   0.0112483 23.6275   330.364   22.6453   
9.9       3857.43   0.0112483 23.7803   330.211   22.6539   
10        3893.72   0.0112483 23.9372   330.054   22.67     
10.1      3933.57   0.0112483 24.0974   329.894   22.6568   
10.2      3975.72   0.0112483 24.2639   329.728   22.6615   
10.3      4016.16   0.0112483 24.4194   329.572   22.6661   
10.4      4058.74   0.0112483 24.5789   329.413   22.6609   
10.5      4096.94   0.0112483 24.7271   329.264   22.6506   
10.6      4133.57   0.0112483 24.8736   329.118   22.6619   
10.7      4167.97   0.0112483 25.0162   328.975   22.6615   
10.8      4208.91   0.0112483 25.1631   328.828   22.6701   
10.9      4246.85   0.0112483 25.3174   328.674   22.656    
11        4286.32   0.0112483 25.4667   328.525   22.6722   
11.1      4322.68   0.0112483 25.6234   328.368   22.6237   
11.2      4362.63   0.0112483 25.7823   328.209   22.6316   
11.3      4404.37   0.0112483 25.9366   328.055   22.6735   
11.4      4443.81   0.0112483 26.0897   327.902   22.6407   
11.5      4485.13   0.0112483 26.2444   327.747   22.6785   
11.6      4523.57   0.0112483 26.3986   327.593   22.6419   
11.7      4564.97   0.0112483 26.549    327.442   22.6004   
11.8      4603.51   0.0112483 26.6916   327.3     22.6566   
11.9      4637.36   0.0112483 26.8404   327.151   22.6607   
12        4682.88   0.0112483 26.9944   326.997   22.6688   
12.1      4720.8    0.0112483 27.1469   326.845   22.6601   
12.2      4758.39   0.0112483 27.2961   326.695   22.6558   
12.3      4801.44   0.0112483 27.4533   326.538   22.6631   
12.4      4840.23   0.0112483 27.6077   326.384   22.6586   
12.5      4882.05   0.0112483 27.7564   326.235   22.667    
12.6      4922.49   0.0112483 27.9134   326.078   22.6638   
12.7      4959.53   0.0112483 28.0782   325.913   22.5714   
12.8      5009.54   0.0112483 28.2401   325.751   22.6433   
12.9      5047.48   0.0112483 28.3861   325.605   22.6352   
13        5081.38   0.0112483 28.546    325.445   22.6395   
13.1      5130.8    0.0112483 28.7038   325.288   22.6613   
13.2      5168.81   0.0112483 28.8567   325.135   22.6685   
13.3      5212.3    0.0112483 29.0123   324.979   22.6252   
13.4      5252.21   0.0112483 29.1598   324.832   22.6096   
13.5      5289.33   0.0112483 29.3183   324.673   22.6624   
13.6      5332.76   0.0112483 29.47     324.521   22.6296   
13.7      5371.43   0.0112483 29.6185   324.373   22.6259   
13.8      5411.11   0.0112483 29.7775   324.214   22.6295   
13.9      5455.37   0.0112483 29.9288   324.063   22.5942   
14        5493.59   0.0112483 30.0775   323.914   22.6711   
14.1      5533.97   0.0112483 30.2304   323.761   22.6415   
14.2      5573.79   0.0112483 30.3798   323.612   22.5775   
14.3      5615.04   0.0112483 30.5349   323.457   22.6071   
14.4      5656.76   0.0112483 30.6843   323.307   22.6302   
14.5      5699.25   0.0112483 30.8337   323.158   22.5999   
14.6      5738.06   0.0112483 30.9783   323.013   22.6332   
14.7      5774.3    0.0112483 31.1184   322.873   22.6494   
14.8      5812.7    0.0112483 31.2617   322.73    22.6676   
14.9      5852.81   0.0112483 31.4051   322.586   22.6672   
15        5889.51   0.0112483 31.5569   322.435   22.6557   
15.1      5933.87   0.0112483 31.7047   322.287   22.597    
15.2      5973.41   0.0112483 31.8516   322.14    22.6092   
15.3      6011.06   0.0112483 32.0001   321.991   22.6529   
15.4      6053.67   0.0112483 32.148    321.843   22.6262   
15.5      6092.01   0.0112483 32.2935   321.698   22.6409   
15.6      6130.6    0.0112483 32.4411   321.55    22.6521   
15.7      6172.48   0.0112483 32.5944   321.397   22.6607   
15.8      6214.33   0.0112483 32.7464   321.245   22.6614   
15.9      6255.96   0.0112483 32.8981   321.093   22.5983   
16        6294.55   0.0112483 33.0489   320.942   22.6399   
16.1      6336.07   0.0112483 33.2063   320.785   22.6091   
16.2      6384.88   0.0112483 33.3593   320.632   22.6321   
16.3      6427.66   0.0112483 33.4932   320.498   22.6538   
16.4      6458.78   0.0112483 33.6312   320.36    22.6242   
16.5      6496.13   0.0112483 33.7823   320.209   22.6678   
16.6      6537.25   0.0112483 33.9313   320.06    22.6758   
16.7      6578.86   0.0112483 34.0799   319.911   22.6191   
16.8      6619.3    0.0112483 34.2192   319.772   22.6188   
16.9      6655.65   0.0112483 34.3636   319.628   22.6641   
17        6699.48   0.0112483 34.5071   319.484   22.634    
17.1      6735.02   0.0112483 34.646    319.345   22.6081   
17.2      6775.27   0.0112483 34.7923   319.199   22.633    
17.3      6815.23   0.0112483 34.9387   319.053   22.6093   
17.4      6856.42   0.0112483 35.0854   318.906   22.6021   
17.5      6898.67   0.0112483 35.2258   318.766   22.6293   
17.6      6932.17   0.0112483 35.3679   318.624   22.6284   
17.7      6979.77   0.0112483 35.5201   318.471   22.612    
17.8      7018.81   0.0112483 35.6805   318.311   22.6405   
17.9      7067.62   0.0112483 35.8489   318.142   22.6828   
18        7113.53   0.0112483 36.0081   317.983   22.6246   
18.1      7158.14   0.0112483 36.1564   317.835   22.6562   
18.2      7198.47   0.0112483 36.3026   317.689   22.6729   
18.3      7240.4    0.0112483 36.4495   317.542   22.6033   
18.4      7275.96   0.0112483 36.5977   317.394   22.616    
18.5      7318.63   0.0112483 36.7505   317.241   22.6772   
18.6      7363.15   0.0112483 36.8943   317.097   22.6118   
18.7      7400.1    0.0112483 37.0401   316.951   22.6187   
18.8      7444.64   0.0112483 37.1795   316.812   22.6218   
18.9      7481.89   0.0112483 37.311    316.68    22.6051   
19        7515.53   0.0112483 37.4451   316.546   22.5958   
19.1      7554.56   0.0112483 37.5905   316.401   22.6238   
19.2      7598.93   0.0112483 37.739    316.252   22.6161   
19.3      7635.04   0.0112483 37.8721   316.119   22.6724   
19.4      7674.91   0.0112483 38.0189   315.973   22.6203   
19.5      7720.18   0.0112483 38.163    315.828   22.6581   
19.6      7758.66   0.0112483 38.2971   315.694   22.6113   
19.7      7798.93   0.0112483 38.4375   315.554   22.6338   
19.8      7836.88   0.0112483 38.5729   315.419   22.6649   
19.9      7872.39   0.0112483 38.7044   315.287   22.6678   
20        7910.78   0.0112483 38.8411   315.15    22.6663   
20.1      7949.12   0.0112483 38.9777   315.014   22.6612   
20.2      7989.11   0.0112483 39.1249   314.867   22.6734   
20.3      8031.72   0.0112483 39.2645   314.727   22.6485   
20.4      8069.31   0.0112483 39.4041   314.587   22.6236   
20.5      8112.61   0.0112483 39.5443   314.447   22.6595   
20.6      8150.06   0.0112483 39.6842   314.307   22.6673   
20.7      8193.6    0.0112483 39.8204   314.171   22.6662   
20.8      8229.33   0.0112483 39.952    314.039   22.6617   
20.9      8267.48   0.0112483 40.0903   313.901   22.6537   
21        8308.32   0.0112483 40.2248   313.767   22.6336   
21.1      8347.14   0.0112483 40.3651   313.626   22.6098   
21.2      8387.4    0.0112483 40.5055   313.486   22.611    
21.3      8430.34   0.0112483 40.6444   313.347   22.615    
21.4      8468.93   0.0112483 40.7741   313.217   22.6267   
21.5      8502.85   0.0112483 40.9076   313.084   22.6134   
21.6      8541.62   0.0112483 41.0501   312.941   22.6479   
21.7      8578.16   0.0112483 41.1899   312.802   22.6137   
21.8      8624.8    0.0112483 41.3436   312.648   22.6106   
21.9      8669.49   0.0112483 41.4899   312.502   22.6426   
22        8709.26   0.0112483 41.6262   312.365   22.6272   
22.1      8749.23   0.0112483 41.7671   312.224   22.6402   
22.2      8791.64   0.0112483 41.9083   312.083   22.6777   
22.3      8831.68   0.0112483 42.0456   311.946   22.6393   
22.4      8871.59   0.0112483 42.1873   311.804   22.5914   
22.5      8910.6    0.0112483 42.3236   311.668   22.634    
22.6      8952.35   0.0112483 42.4708   311.521   22.641    
22.7      8995.36   0.0112483 42.6079   311.383   22.6452   
22.8      9034.53   0.0112483 42.7446   311.247   22.6758   
22.9      9076.41   0.0112483 42.8764   311.115   22.6659   
23        9114.43   0.0112483 43.004    310.987   22.6648   
23.1      9146.52   0.0112483 43.1374   310.854   22.6778   
23.2      9190.43   0.0112483 43.2776   310.714   22.6518   
23.3      9234.24   0.0112483 43.4201   310.571   22.6583   
23.4      9274.58   0.0112483 43.5498   310.442   22.6435   
23.5      9307.73   0.0112483 43.6839   310.308   22.5888   
23.6      9348.61   0.0112483 43.8284   310.163   22.6127   
23.7      9391.85   0.0112483 43.9644   310.027   22.6663   
23.8      9426.31   0.0112483 44.0979   309.894   22.6352   
23.9      9465.79   0.0112483 44.2301   309.761   22.6724   
24        9509.42   0.0112483 44.359    309.632   22.6676   
24.1      9544.59   0.0112483 44.4905   309.501   22.6677   
24.2      9583.22   0.0112482 44.6236   309.368   22.5988   
24.3      9623.09   0.0112484 44.76     309.231   22.5646   
24.4      9664.64   0.0112481 44.8969   309.094   22.6073   
24.5      9700.8    0.0112486 45.0228   308.969   22.648    
24.6      9736.61   0.0112478 45.1611   308.83    22.6029   
24.7      9781.61   0.011249  45.2974   308.694   22.6184   
24.8      9816.81   0.0112472 45.4351   308.556   22.6341   
24.9      9862.64   0.0112501 45.5717   308.42    22.6694   
25        9900.35   0.0112446 45.7138   308.278   22.6736   
25.1      9943.44   0.0112644 45.8596   308.132   22.6089   
25.2      9987.97   0.0113638 45.9983   307.993   22.6097   
25.3      10030.6   0.0113636 46.126    307.865   22.6593   
25.4      10062.2   0.0113649 46.2568   307.735   22.6286   
25.5      10104.9   0.0113639 46.4001   307.591   22.6381   
25.6      10146     0.0113646 46.5343   307.457   22.576    
25.7      10186.9   0.0113642 46.6742   307.317   22.5978   
25.8      10229.6   0.0113644 46.8071   307.184   22.6749   
25.9      10263.2   0.0113643 46.9362   307.055   22.6534   
26        10305.3   0.0113643 47.0689   306.923   22.6386   
26.1      10340.4   0.0113643 47.1955   306.796   22.5529   
26.2      10379.1   0.0113643 47.3312   306.66    22.6121   
26.3      10421.8   0.0113643 47.4682   306.523   22.5972   
26.4      10459.4   0.0113643 47.5998   306.392   22.6213   
26.5      10500.1   0.0113643 47.7374   306.254   22.589    
26.6      10544.3   0.0113643 47.8724   306.119   22.6094   
26.7      10580.6   0.0113643 48.0027   305.989   22.6812   
26.8      10621     0.0113643 48.1315   305.86    22.5823   
26.9      10658.6   0.0113643 48.2575   305.734   22.5831   
27        10696.6   0.0113643 48.3859   305.606   22.6127   
27.1      10735.7   0.0113643 48.5148   305.477   22.671    
27.2      10776.3   0.0113643 48.6503   305.341   22.6706   
27.3      10811.9   0.0113643 48.7794   305.212   22.6688   
27.4      10849.9   0.0113643 48.9177   305.074   22.662    
27.5      10893.9   0.0113643 49.0615   304.93    22.6622   
27.6      10937     0.0113643 49.1917   304.8     22.6391   
27.7      10976.4   0.0113643 49.3194   304.672   22.6343   
27.8      11015.7   0.0113643 49.454    304.537   22.6501   
27.9      11051.3   0.0113643 49.5847   304.407   22.5798   
28        11089.6   0.0113643 49.7244   304.267   22.6672   
28.1      11135     0.0113643 49.8611   304.13    22.6174   
28.2      11173.3   0.0113643 49.9942   303.997   22.6303   
28.3      11216.6   0.0113643 50.1302   303.861   22.6397   
