**HEADER
RELEASE   Release of TYDEX-Format                 1.3
MEASID    Measurement ID                          bottoming_2p7_40fz000_P00cam0_110186_01
SUPPLIER  Data Supplier                           ika-fka / SteiReP / friederichs
DATE      Date                                    30/01/20
CLCKTIME  Clocktime                               14:07

**COMMENTS
------------------------------------
Bridgestone Potenza S001 MO 245/50R18 100W DOT4918
Bottoming test on flat surface at 0 deg camber
------------------------------------

**CONSTANTS
LOCATION  Location                      -         ika-fka, Aachen
MANUFACT  Tyre brand name               -         Bridgestone
IDENTITY  Commercial name               -         Potenza S001 MO
INFLPRES  Inflation Pressure            bar       2.7
TYREMASS  Tyre mass                     kg        11.95
OVALLDIA  Measured outside diameter     m         0.708
NOMDIAME  Nominal diameter of tyre      m         0.7022
NOMWIDTH  Nominal section width of tyre m         0.245
ASPRATIO  Nominal aspect ratio          -         0.5
SPEEDSYM  Speed symbol                  -         W
LOADIND   Load index                    -         100
TYROTIN   Tyre rot. inertia about YC    kgm2      1.233
RIMDIAME  Nominal rim diameter          m         0.4572
RIMWIDTH  Rim width                     m         0.2032
RIMROTIN  Rim rotational inertia        kgm2      0.386
TESTRIG   Test rig                      -         Stiffness Tyre Test Rig
CURVTRSF  Curvature of track surface    1/m       0
TRCKSURF  Surface of Track              -         Korund P80
TRCKCOND  Condition of Track Surface    -         dry
SLIPANGL  Slip angle                    deg       0
INCLANGL  Inclination angle             deg       0
LONGVEL   Longitudinal velocity         m/s       0

**MEASURCHANNELS
RUNTIME   Running Time                  s         1         0         0
FZW       Vertical Force                N         1         0         0
INCLANGL  Inclination angle             deg       1         0         0
TYREDEFW  Tyre deflection               mm        1         0         0
DSTGRWHC  Dist. ground - WHL. centre    mm        1         0         0
TRDTEMP   Tread Surface Temperature     deg C     1         0         0

**MEASURDATA
0         -35.9571  0.0112483 0.0992162 354.611   22.5907   
0.1       -30.3881  0.0112483 0.0603514 354.65    22.5759   
0.2       -28.5644  0.0112483 0.0938881 354.616   22.5946   
0.3       -33.0127  0.0112483 0.174651  354.536   22.5885   
0.4       -27.6394  0.0112483 0.303847  354.406   22.6387   
0.5       -15.6581  0.0112483 0.454834  354.255   22.6191   
0.6       2.81279   0.0112483 0.631234  354.079   22.5666   
0.7       21.8495   0.0112483 0.829264  353.881   22.6634   
0.8       57.6566   0.0112483 1.03678   353.673   22.7514   
0.9       88.901    0.0112483 1.24784   353.462   22.739    
1         122.072   0.0112483 1.46868   353.242   22.7467   
1.1       164.95    0.0112483 1.68766   353.023   22.736    
1.2       210.07    0.0112483 1.90824   352.802   22.74     
1.3       256.502   0.0112483 2.11846   352.592   22.7409   
1.4       301.981   0.0112483 2.33003   352.38    22.7228   
1.5       347.041   0.0112483 2.53737   352.173   22.7473   
1.6       392.853   0.0112483 2.74312   351.967   22.697    
1.7       433.129   0.0112483 2.94229   351.768   22.6143   
1.8       480.469   0.0112483 3.1441    351.566   22.5687   
1.9       527.459   0.0112483 3.34223   351.368   22.6046   
2         573.582   0.0112483 3.53257   351.178   22.6066   
2.1       616.432   0.0112483 3.71625   350.994   22.522    
2.2       660.288   0.0112483 3.90468   350.806   22.5841   
2.3       709.779   0.0112483 4.09611   350.614   22.6272   
2.4       749.631   0.0112483 4.27807   350.432   22.5594   
2.5       788.414   0.0112483 4.46537   350.245   22.5877   
2.6       837.672   0.0112483 4.65242   350.058   22.5707   
2.7       874.559   0.0112483 4.83452   349.876   22.5855   
2.8       916.305   0.0112483 5.01742   349.693   22.643    
2.9       962.64    0.0112483 5.19839   349.512   22.6003   
3         999.075   0.0112483 5.3768    349.333   22.6339   
3.1       1047.54   0.0112483 5.56016   349.15    22.764    
3.2       1089.99   0.0112483 5.73477   348.975   22.7243   
3.3       1122.96   0.0112483 5.90964   348.801   22.743    
3.4       1175.58   0.0112483 6.0868    348.623   22.7331   
3.5       1216.04   0.0112483 6.25587   348.454   22.7289   
3.6       1257.53   0.0112483 6.42069   348.29    22.7369   
3.7       1293      0.0112483 6.59337   348.117   22.7444   
3.8       1335.92   0.0112483 6.76486   347.945   22.7277   
3.9       1382.58   0.0112483 6.9354    347.775   22.7419   
4         1424.61   0.0112483 7.10272   347.607   22.7361   
4.1       1464.95   0.0112483 7.26825   347.442   22.7344   
4.2       1501.91   0.0112483 7.43602   347.274   22.7303   
4.3       1548.11   0.0112483 7.60288   347.107   22.7393   
4.4       1588.51   0.0112483 7.76905   346.941   22.7417   
4.5       1629.48   0.0112483 7.93115   346.779   22.7343   
4.6       1673.3    0.0112483 8.09825   346.612   22.7325   
4.7       1712.23   0.0112483 8.26164   346.449   22.7268   
4.8       1756.11   0.0112483 8.42578   346.284   22.7407   
4.9       1797.39   0.0112483 8.58847   346.122   22.7322   
5         1833.56   0.0112483 8.75131   345.959   22.7349   
5.1       1878.94   0.0112483 8.91649   345.794   22.7227   
5.2       1916.9    0.0112483 9.07908   345.631   22.7562   
5.3       1959.63   0.0112483 9.24471   345.466   22.6547   
5.4       2004.83   0.0112483 9.40601   345.304   22.5369   
5.5       2048.34   0.0112483 9.56463   345.146   22.5828   
5.6       2087.43   0.0112483 9.72422   344.986   22.5729   
5.7       2125.48   0.0112483 9.88329   344.827   22.6557   
5.8       2165.22   0.0112483 10.0468   344.663   22.5694   
5.9       2208.75   0.0112483 10.2072   344.503   22.5772   
6         2248.77   0.0112483 10.3646   344.346   22.5402   
6.1       2292.37   0.0112483 10.5267   344.184   22.5645   
6.2       2332.63   0.0112483 10.6838   344.026   22.6001   
6.3       2371.75   0.0112483 10.8374   343.873   22.5919   
6.4       2410.16   0.0112483 10.9852   343.725   22.5887   
6.5       2454.02   0.0112483 11.132    343.578   22.5805   
6.6       2487.14   0.0112483 11.2828   343.427   22.5964   
6.7       2526.8    0.0112483 11.4335   343.277   22.6287   
6.8       2566.54   0.0112483 11.586    343.124   22.6074   
6.9       2603.06   0.0112483 11.7385   342.972   22.6168   
7         2644.52   0.0112483 11.8919   342.818   22.6026   
7.1       2684.74   0.0112483 12.0452   342.665   22.6108   
7.2       2725.66   0.0112483 12.1992   342.511   22.6031   
7.3       2763.31   0.0112483 12.3602   342.35    22.6282   
7.4       2806.77   0.0112483 12.5181   342.192   22.6428   
7.5       2845.1    0.0112483 12.6775   342.033   22.5719   
7.6       2891.77   0.0112483 12.8396   341.871   22.6082   
7.7       2930.5    0.0112483 12.9965   341.714   22.615    
7.8       2971.59   0.0112483 13.1503   341.56    22.5634   
7.9       3013.66   0.0112483 13.3018   341.408   22.616    
8         3047.78   0.0112483 13.4605   341.25    22.5876   
8.1       3092.49   0.0112483 13.6241   341.086   22.6367   
8.2       3139.53   0.0112483 13.7815   340.929   22.5274   
8.3       3177.52   0.0112483 13.9334   340.777   22.591    
8.4       3219.32   0.0112483 14.0852   340.625   22.576    
8.5       3259.82   0.0112483 14.241    340.469   22.6009   
8.6       3299.08   0.0112483 14.3923   340.318   22.5665   
8.7       3336.06   0.0112483 14.5465   340.164   22.5554   
8.8       3384.14   0.0112483 14.7024   340.008   22.6054   
8.9       3421.14   0.0112483 14.8558   339.854   22.6086   
9         3460.28   0.0112483 15.0128   339.697   22.5641   
9.1       3503.24   0.0112483 15.1661   339.544   22.5661   
9.2       3546.23   0.0112483 15.3194   339.391   22.6066   
9.3       3581.73   0.0112483 15.47     339.24    22.573    
9.4       3620.83   0.0112483 15.6257   339.085   22.6097   
9.5       3662.55   0.0112483 15.7812   338.929   22.6183   
9.6       3704.01   0.0112483 15.9366   338.774   22.6023   
9.7       3742.94   0.0112483 16.0925   338.618   22.6308   
9.8       3788.88   0.0112483 16.2452   338.465   22.5929   
9.9       3831.45   0.0112483 16.3974   338.313   22.6168   
10        3873.51   0.0112483 16.5533   338.157   22.5954   
10.1      3915.87   0.0112483 16.6992   338.011   22.5661   
10.2      3953.98   0.0112483 16.8459   337.864   22.6225   
10.3      3991.99   0.0112483 16.9992   337.711   22.5518   
10.4      4032.16   0.0112483 17.1502   337.56    22.633    
10.5      4068.92   0.0112483 17.3055   337.405   22.5644   
10.6      4113.45   0.0112483 17.4565   337.254   22.6393   
10.7      4153.5    0.0112483 17.6082   337.102   22.612    
10.8      4193.88   0.0112483 17.7586   336.952   22.5727   
10.9      4228.11   0.0112483 17.9101   336.8     22.6027   
11        4273.56   0.0112483 18.0648   336.645   22.574    
11.1      4318.99   0.0112483 18.216    336.494   22.6646   
11.2      4359.34   0.0112483 18.3678   336.342   22.6033   
11.3      4401.82   0.0112483 18.5186   336.192   22.6063   
11.4      4438.29   0.0112483 18.6735   336.037   22.5823   
11.5      4480.73   0.0112483 18.831    335.879   22.6162   
11.6      4522.76   0.0112483 18.9857   335.725   22.6511   
11.7      4568.01   0.0112483 19.1363   335.574   22.6001   
11.8      4607.83   0.0112483 19.2864   335.424   22.6728   
11.9      4646.4    0.0112483 19.4383   335.272   22.5843   
12        4687.41   0.0112483 19.5912   335.119   22.6188   
12.1      4732.85   0.0112483 19.7438   334.966   22.5931   
12.2      4773.35   0.0112483 19.8905   334.82    22.5773   
12.3      4810.51   0.0112483 20.0375   334.673   22.5997   
12.4      4850.32   0.0112483 20.1831   334.527   22.5757   
12.5      4885.59   0.0112483 20.3296   334.381   22.591    
12.6      4928.49   0.0112483 20.4809   334.229   22.6426   
12.7      4969.74   0.0112483 20.6314   334.079   22.6042   
12.8      5011.76   0.0112483 20.7786   333.932   22.6069   
12.9      5052.55   0.0112483 20.9285   333.782   22.6035   
13        5093.21   0.0112483 21.0783   333.632   22.5981   
13.1      5131.56   0.0112483 21.2235   333.487   22.61     
13.2      5176.8    0.0112483 21.3668   333.343   22.5896   
13.3      5218.94   0.0112483 21.5123   333.198   22.5975   
13.4      5253.27   0.0112483 21.6624   333.048   22.5709   
13.5      5295.19   0.0112483 21.8131   332.897   22.6618   
13.6      5337.9    0.0112483 21.9653   332.745   22.6342   
13.7      5378.78   0.0112482 22.1157   332.594   22.5512   
13.8      5418.01   0.0112485 22.2657   332.445   22.6348   
13.9      5461.35   0.0112479 22.4167   332.294   22.5899   
14        5503.92   0.0112489 22.5629   332.147   22.5402   
14.1      5543.64   0.0112473 22.7124   331.998   22.5981   
14.2      5582.96   0.0112499 22.8606   331.85    22.572    
14.3      5628.59   0.0112459 23.0071   331.703   22.5619   
14.4      5668.45   0.0112523 23.1571   331.553   22.5697   
14.5      5711.49   0.0112406 23.305    331.405   22.5739   
14.6      5749.42   0.0112796 23.4512   331.259   22.5899   
14.7      5788.06   0.011372  23.5968   331.113   22.5707   
14.8      5828.35   0.0113603 23.7469   330.963   22.6063   
14.9      5872.59   0.0113668 23.8965   330.814   22.5638   
15        5912.51   0.0113628 24.0425   330.668   22.5755   
15.1      5952.41   0.0113653 24.1956   330.515   22.6083   
15.2      5998.86   0.0113637 24.3408   330.369   22.6238   
15.3      6037.53   0.0113647 24.4869   330.223   22.626    
15.4      6078.96   0.0113641 24.6334   330.077   22.6005   
15.5      6117.12   0.0113644 24.7748   329.935   22.5685   
15.6      6158.03   0.0113643 24.9197   329.791   22.5501   
15.7      6200.09   0.0113643 25.0657   329.645   22.5702   
15.8      6236.65   0.0113643 25.2068   329.503   22.5748   
15.9      6278.83   0.0113643 25.3551   329.355   22.6115   
16        6324.58   0.0113643 25.498    329.212   22.5529   
16.1      6363.98   0.0113643 25.6429   329.067   22.5856   
16.2      6404.23   0.0113643 25.7821   328.928   22.6251   
16.3      6443.87   0.0113643 25.9213   328.789   22.6177   
16.4      6478.98   0.0113643 26.0664   328.644   22.5719   
16.5      6517.18   0.0113643 26.2128   328.497   22.585    
16.6      6564.03   0.0113643 26.3604   328.35    22.605    
16.7      6602.47   0.0113643 26.5039   328.206   22.5662   
16.8      6644.21   0.0113643 26.6483   328.062   22.5695   
16.9      6687.86   0.0113643 26.7908   327.919   22.5961   
17        6730.69   0.0113643 26.9294   327.781   22.6207   
17.1      6766.8    0.0113643 27.0675   327.643   22.5592   
17.2      6802.14   0.0113643 27.212    327.498   22.6002   
17.3      6844.39   0.0113643 27.358    327.352   22.602    
17.4      6885.57   0.0113643 27.4988   327.211   22.618    
17.5      6930.44   0.0113643 27.6435   327.067   22.5917   
17.6      6971.25   0.0113643 27.783    326.927   22.6586   
17.7      7012.68   0.0113643 27.9232   326.787   22.6319   
17.8      7050.66   0.0113643 28.064    326.646   22.6453   
17.9      7086.03   0.0113643 28.205    326.505   22.6161   
18        7131.19   0.0113643 28.3473   326.363   22.5818   
18.1      7168.48   0.0113643 28.4891   326.221   22.6275   
18.2      7214.29   0.0113643 28.6309   326.079   22.596    
18.3      7254.74   0.0113643 28.7708   325.939   22.6083   
18.4      7290.14   0.0113643 28.9096   325.801   22.6478   
18.5      7336.88   0.0113643 29.0504   325.66    22.6053   
18.6      7371.37   0.0113643 29.1865   325.524   22.637    
18.7      7413.1    0.0113643 29.3274   325.383   22.603    
18.8      7452.3    0.0113643 29.4696   325.241   22.6099   
18.9      7492.11   0.0113643 29.6097   325.101   22.6506   
19        7535.51   0.0113643 29.7509   324.959   22.5594   
19.1      7573.97   0.0113643 29.8916   324.819   22.5733   
19.2      7614.4    0.0113643 30.0345   324.676   22.6138   
19.3      7657.18   0.0113643 30.1733   324.537   22.6393   
19.4      7696.54   0.0113643 30.3115   324.399   22.6067   
19.5      7737.91   0.0113643 30.446    324.264   22.597    
19.6      7775.77   0.0113643 30.5838   324.126   22.585    
19.7      7813.79   0.0113643 30.7239   323.986   22.6237   
19.8      7858.16   0.0113643 30.8665   323.844   22.5906   
19.9      7896.27   0.0113643 31.0077   323.702   22.5625   
20        7937.01   0.0113643 31.145    323.565   22.6176   
20.1      7976      0.0113643 31.2851   323.425   22.5912   
20.2      8017.8    0.0113643 31.4254   323.285   22.5747   
20.3      8064.19   0.0113643 31.5639   323.146   22.6026   
20.4      8098.95   0.0113643 31.6961   323.014   22.6039   
20.5      8138.68   0.0113643 31.8288   322.881   22.6322   
20.6      8177.52   0.0113643 31.9607   322.75    22.6167   
20.7      8214.13   0.0113643 32.0976   322.613   22.5737   
20.8      8253.81   0.0113643 32.2314   322.479   22.5231   
20.9      8291.21   0.0113643 32.3687   322.341   22.5883   
21        8334.05   0.0113643 32.5089   322.201   22.5919   
21.1      8371.71   0.0113643 32.6461   322.064   22.5374   
21.2      8414.26   0.0113643 32.7815   321.929   22.6009   
21.3      8452.85   0.0113643 32.9153   321.795   22.5559   
21.4      8490.78   0.0113643 33.0546   321.656   22.5864   
21.5      8536.53   0.0113643 33.1886   321.522   22.5911   
21.6      8571.44   0.0113643 33.3208   321.389   22.5947   
21.7      8609.59   0.0113643 33.4592   321.251   22.5803   
21.8      8648.77   0.0113643 33.594    321.116   22.5486   
21.9      8689.91   0.0113643 33.7347   320.976   22.5838   
22        8729.83   0.0113643 33.871    320.839   22.5778   
22.1      8772      0.0113643 34.0058   320.704   22.5552   
22.2      8810.96   0.0113643 34.1461   320.564   22.6144   
22.3      8851.33   0.0113643 34.2833   320.427   22.5983   
22.4      8894.85   0.0113643 34.4178   320.292   22.5513   
22.5      8936.33   0.0113643 34.5444   320.166   22.5418   
22.6      8964.62   0.0113643 34.6761   320.034   22.5866   
22.7      9008.51   0.0113643 34.8124   319.898   22.5865   
22.8      9047.26   0.0113643 34.9434   319.767   22.5634   
22.9      9089.68   0.0113643 35.0828   319.627   22.5889   
23        9131.37   0.0113643 35.2156   319.495   22.6337   
23.1      9167.49   0.0113643 35.3509   319.359   22.6098   
23.2      9207.61   0.0113643 35.4881   319.222   22.6076   
23.3      9245.03   0.0113643 35.6243   319.086   22.6317   
23.4      9286.63   0.0113643 35.759    318.951   22.5964   
23.5      9324.01   0.0113643 35.894    318.816   22.6332   
23.6      9364.85   0.0113643 36.0335   318.677   22.5967   
23.7      9411.16   0.0113643 36.1732   318.537   22.5903   
23.8      9455.37   0.0113643 36.3106   318.4     22.5635   
23.9      9488.54   0.0113643 36.4311   318.279   22.6082   
24        9519.01   0.0113643 36.5706   318.14    22.6016   
24.1      9570.36   0.0113643 36.7158   317.994   22.5594   
24.2      9607.2    0.0113643 36.8476   317.863   22.5681   
24.3      9644.57   0.0113643 36.9862   317.724   22.6108   
24.4      9689.63   0.0113643 37.1253   317.585   22.6198   
24.5      9731.93   0.0113643 37.2604   317.45    22.6211   
24.6      9768      0.0113643 37.3961   317.314   22.6056   
24.7      9812.73   0.0113643 37.532    317.178   22.6525   
24.8      9853.49   0.0113643 37.6641   317.046   22.5502   
24.9      9887.75   0.0113643 37.7983   316.912   22.5588   
25        9929.04   0.0113643 37.9363   316.774   22.583    
25.1      9971.38   0.0113643 38.0712   316.639   22.5924   
25.2      10011     0.0113643 38.2045   316.506   22.5791   
25.3      10052     0.0113643 38.3432   316.367   22.5827   
25.4      10090.8   0.0113643 38.4767   316.233   22.5621   
25.5      10131.6   0.0113643 38.6032   316.107   22.599    
25.6      10168.3   0.0113643 38.7322   315.978   22.6315   
25.7      10210.4   0.0113643 38.8575   315.853   22.6515   
25.8      10246     0.0113643 38.9836   315.727   22.6024   
25.9      10285.1   0.0113643 39.1137   315.597   22.5889   
26        10317.8   0.0113643 39.243    315.467   22.7373   
26.1      10358.4   0.0113643 39.3813   315.329   22.7431   
26.2      10403.5   0.0113643 39.5128   315.197   22.7307   
26.3      10444.2   0.0113643 39.6467   315.063   22.7347   
26.4      10483.6   0.0113643 39.7757   314.935   22.7337   
26.5      10520.9   0.0113643 39.9089   314.801   22.7402   
26.6      10560.8   0.0113643 40.0441   314.666   22.7289   
26.7      10597.7   0.0113643 40.178    314.532   22.7429   
26.8      10642.8   0.0113643 40.3198   314.39    22.7374   
26.9      10684.3   0.0113643 40.453    314.257   22.7407   
27        10723     0.0113643 40.5887   314.121   22.7341   
27.1      10768.1   0.0113643 40.7258   313.984   22.7362   
27.2      10805.2   0.0113643 40.8607   313.849   22.7454   
27.3      10848     0.0113643 40.9929   313.717   22.7439   
27.4      10887     0.0113643 41.1244   313.586   22.738    
27.5      10926.4   0.0113642 41.2601   313.45    22.729    
27.6      10968.1   0.0113645 41.3968   313.313   22.7287   
27.7      11006.8   0.0113639 41.531    313.179   22.7383   
27.8      11049.7   0.0113649 41.662    313.048   22.7411   
27.9      11090.4   0.0113633 41.7943   312.916   22.7365   
28        11130.6   0.0113658 41.9282   312.782   22.7374   
28.1      11170.2   0.0113618 42.056    312.654   22.7337   
28.2      11210.7   0.0113682 42.1894   312.521   22.7391   
28.3      11251.7   0.0113565 42.3224   312.388   22.7346   
28.4      11289.3   0.0113968 42.4529   312.257   22.7335   
28.5      11326.7   0.011488  42.5874   312.123   22.7385   
28.6      11367.8   0.0114763 42.7232   311.987   22.7252   
28.7      11413.6   0.0114827 42.8605   311.85    22.7313   
28.8      11456.3   0.0114787 42.9938   311.716   22.7327   
28.9      11496.9   0.0114813 43.121    311.589   22.7303   
