**HEADER
RELEASE   Release of TYDEX-Format                 1.3
MEASID    Measurement ID                          cvert_2p7_13fz342_P00cam0_G07_dP00_110197_02
SUPPLIER  Data Supplier                           ika-fka / SteiReP / friederichs
DATE      Date                                    30/01/20
CLCKTIME  Clocktime                               14:07

**COMMENTS
------------------------------------
Bridgestone Potenza S001 MO 245/50R18 100W DOT4918
Vertical tyre stiffness on flat surface on transversal cleat at 0 deg camber
------------------------------------

**CONSTANTS
LOCATION  Location                      -         ika-fka, Aachen
MANUFACT  Tyre brand name               -         Bridgestone
IDENTITY  Commercial name               -         Potenza S001 MO
INFLPRES  Inflation Pressure            bar       2.7
TYREMASS  Tyre mass                     kg        11.95
OVALLDIA  Measured outside diameter     m         0.708
NOMDIAME  Nominal diameter of tyre      m         0.7022
NOMWIDTH  Nominal section width of tyre m         0.245
ASPRATIO  Nominal aspect ratio          -         0.5
SPEEDSYM  Speed symbol                  -         W
LOADIND   Load index                    -         100
TYROTIN   Tyre rot. inertia about YC    kgm2      1.233
RIMDIAME  Nominal rim diameter          m         0.4572
RIMWIDTH  Rim width                     m         0.2032
RIMROTIN  Rim rotational inertia        kgm2      0.386
TESTRIG   Test rig                      -         Stiffness Tyre Test Rig
CURVTRSF  Curvature of track surface    1/m       0
TRCKSURF  Surface of Track              -         Korund P80
TRCKCOND  Condition of Track Surface    -         dry
OBSTTYPE  Type of obstacle              -         G07
OBSTSURF  Surface of obstacle           -         Steel
CLEAT_H   Cleat height                  m         0.01
CLEAT_L   Cleat length                  m         0.02
CLT_BVED  Cleat bevel edge              m         0.002
CLT_ORI   Cleat orientation             deg       0
SLIPANGL  Slip angle                    deg       0
INCLANGL  Inclination angle             deg       0
LONGVEL   Longitudinal velocity         m/s       0

**MEASURCHANNELS
RUNTIME   Running Time                  s         1         0         0
FZW       Vertical Force                N         1         0         0
INCLANGL  Inclination angle             deg       1         0         0
TYREDEFW  Tyre deflection               mm        1         0         0
DSTGRWHC  Dist. ground - WHL. centre    mm        1         0         0
TRDTEMP   Tread Surface Temperature     deg C     1         0         0

**MEASURDATA
0         -1.19104  0.00231921 -0.0425628 354.813   22.5059   
0.1       3.09424   0.00231921 0.110576  354.66    22.4954   
0.2       0.642558  0.00231921 0.266269  354.504   22.4928   
0.3       0.993597  0.00231921 0.438037  354.332   22.5001   
0.4       2.03172   0.00231921 0.623776  354.146   22.4875   
0.5       12.7856   0.00231921 0.815092  353.955   22.4892   
0.6       31.4605   0.00231921 1.00119   353.769   22.5313   
0.7       57.6161   0.00231921 1.16696   353.603   22.517    
0.8       80.8807   0.00231921 1.30773   353.462   22.5061   
0.9       100.219   0.00231921 1.4371    353.333   22.4932   
1         124.29    0.00231921 1.5699    353.2     22.4869   
1.1       146.266   0.00231921 1.68837   353.082   22.4833   
1.2       162.878   0.00231921 1.8407    352.929   22.5      
1.3       193.115   0.00231921 2.04281   352.727   22.5133   
1.4       225.628   0.00231921 2.25287   352.517   22.4805   
1.5       266.222   0.00231921 2.48366   352.286   22.495    
1.6       307.078   0.00231921 2.71333   352.057   22.4911   
1.7       346.927   0.00231921 2.9337    351.836   22.4819   
1.8       392.353   0.00231921 3.1524    351.618   22.4619   
1.9       435.25    0.00231921 3.37043   351.4     22.4571   
2         476.056   0.00231921 3.58403   351.186   22.4609   
2.1       522.691   0.00231921 3.79472   350.975   22.4561   
2.2       564.337   0.00231921 3.99471   350.775   22.4671   
2.3       600.645   0.00231921 4.19029   350.58    22.46     
2.4       641.91    0.00231921 4.40424   350.366   22.4486   
2.5       683.227   0.00231921 4.61035   350.16    22.4614   
2.6       723.93    0.00231921 4.81043   349.96    22.4672   
2.7       761.917   0.00231921 5.01173   349.758   22.509    
2.8       800.479   0.00231921 5.21622   349.554   22.4793   
2.9       843.84    0.00231921 5.42882   349.341   22.5059   
3         892.478   0.00231921 5.63723   349.133   22.4809   
3.1       934.122   0.00231921 5.84369   348.926   22.5093   
3.2       976.765   0.00231921 6.05159   348.719   22.5306   
3.3       1021.41   0.00231921 6.25652   348.514   22.5035   
3.4       1063.9    0.00231921 6.45484   348.315   22.4797   
3.5       1107.73   0.00231921 6.64459   348.126   22.4962   
3.6       1146.51   0.00231921 6.83619   347.934   22.498    
3.7       1190.16   0.00231921 7.02865   347.741   22.4952   
3.8       1228.44   0.00231921 7.21269   347.557   22.4949   
3.9       1268.11   0.00231921 7.39258   347.378   22.4887   
4         1304.24   0.00231921 7.55891   347.211   22.4805   
4.1       1339.02   0.00231921 7.7304    347.04    22.5013   
4.2       1377.7    0.00231921 7.91267   346.857   22.4733   
4.3       1415.01   0.00231921 8.09546   346.675   22.5125   
4.4       1454.26   0.00231921 8.279     346.491   22.4989   
4.5       1497.29   0.00231921 8.46122   346.309   22.4985   
4.6       1535.88   0.00231921 8.6438    346.126   22.5052   
4.7       1580.04   0.00231921 8.82696   345.943   22.4753   
4.8       1619.8    0.00231921 9.0073    345.763   22.4948   
4.9       1655.72   0.00231921 9.19042   345.58    22.523    
5         1697.71   0.00231921 9.37192   345.398   22.5031   
5.1       1741.46   0.00231921 9.55573   345.214   22.5119   
5.2       1780.26   0.00231921 9.73443   345.036   22.4927   
5.3       1816.97   0.00231921 9.90893   344.861   22.5087   
5.4       1857.15   0.00231921 10.0947   344.675   22.5269   
5.5       1894.7    0.00231921 10.2814   344.489   22.5127   
5.6       1940      0.00231921 10.4664   344.304   22.492    
5.7       1976.78   0.00231921 10.6521   344.118   22.5029   
5.8       2020.62   0.00231921 10.8387   343.931   22.5115   
5.9       2060.63   0.00231921 11.0217   343.748   22.4991   
6         2105.55   0.00231921 11.2091   343.561   22.5191   
6.1       2144.29   0.00231921 11.3969   343.373   22.5433   
6.2       2183.56   0.00231921 11.5823   343.188   22.4823   
6.3       2223.83   0.00231921 11.7678   343.002   22.5012   
6.4       2265.52   0.00231921 11.9526   342.818   22.5302   
6.5       2309.22   0.00231921 12.1396   342.631   22.5141   
6.6       2351.32   0.00231921 12.331    342.439   22.499    
6.7       2391.91   0.00231921 12.5135   342.257   22.4786   
6.8       2425.23   0.00231921 12.6921   342.078   22.5117   
6.9       2466.74   0.00231921 12.8733   341.897   22.5113   
7         2509.06   0.00231921 13.0454   341.725   22.4992   
7.1       2542.62   0.00231921 13.2079   341.562   22.4921   
7.2       2582.12   0.00231921 13.3801   341.39    22.5099   
7.3       2621.18   0.00231921 13.5586   341.212   22.481    
7.4       2658.58   0.00231921 13.7344   341.036   22.5058   
7.5       2696.42   0.00231921 13.9163   340.854   22.5008   
7.6       2737.31   0.00231921 14.0984   340.672   22.503    
7.7       2775.85   0.00231921 14.2774   340.493   22.4752   
7.8       2815.12   0.00231921 14.4628   340.307   22.512    
7.9       2858      0.00231921 14.6449   340.125   22.5053   
8         2896.76   0.00231921 14.8276   339.943   22.5082   
8.1       2939.91   0.00231921 15.0204   339.75    22.5131   
8.2       2981.99   0.00231921 15.2104   339.56    22.5091   
8.3       3021.67   0.00231921 15.3986   339.372   22.5099   
8.4       3059.78   0.00231921 15.5807   339.189   22.52     
8.5       3100.07   0.00231921 15.7721   338.998   22.4988   
8.6       3144.62   0.00231921 15.9531   338.817   22.4963   
8.7       3179.4    0.00231921 16.1328   338.637   22.521    
8.8       3223      0.00231921 16.3216   338.448   22.5002   
8.9       3265.03   0.00231921 16.506    338.264   22.4959   
9         3303.91   0.00231921 16.6907   338.079   22.5192   
9.1       3343.63   0.00231921 16.871    337.899   22.5233   
9.2       3381.5    0.00231921 17.0566   337.713   22.527    
9.3       3428.18   0.00231921 17.249    337.521   22.5061   
9.4       3470.11   0.00231921 17.4291   337.341   22.4892   
9.5       3507.05   0.00231921 17.6082   337.162   22.4838   
9.6       3544.68   0.00231921 17.7951   336.975   22.4998   
9.7       3585.95   0.00231921 17.9832   336.787   22.5067   
9.8       3631.7    0.00231921 18.1688   336.601   22.4881   
9.9       3664.07   0.00231921 18.3477   336.422   22.5056   
10        3705.83   0.00231921 18.5382   336.232   22.5294   
10.1      3749.76   0.00231921 18.7286   336.041   22.5044   
10.2      3793.24   0.00231921 18.917    335.853   22.4875   
10.3      3835.34   0.00231921 19.0979   335.672   22.518    
10.4      3871.36   0.00231921 19.28     335.49    22.5103   
10.5      3912.26   0.00231921 19.4674   335.303   22.5137   
10.6      3952.6    0.00231921 19.6535   335.117   22.5052   
10.7      3991.27   0.00231921 19.836    334.934   22.4952   
10.8      4030.61   0.00231921 20.0206   334.75    22.4716   
10.9      4070.84   0.00231921 20.2099   334.56    22.5111   
11        4112.14   0.00231921 20.3925   334.378   22.5094   
11.1      4146.98   0.00231921 20.5772   334.193   22.4934   
11.2      4191.75   0.00231921 20.7703   334       22.5151   
11.3      4234.18   0.00231921 20.9552   333.815   22.5182   
11.4      4276.68   0.00231921 21.1391   333.631   22.5049   
11.5      4314.6    0.00231921 21.3229   333.447   22.5222   
11.6      4352.73   0.00231921 21.5015   333.269   22.5304   
11.7      4391.2    0.00231921 21.6887   333.081   22.5237   
11.8      4431.46   0.00231912 21.875    332.895   22.5118   
11.9      4471.8    0.0023193 22.0658   332.704   22.5196   
12        4515.39   0.00231896 22.259    332.511   22.4946   
12.1      4557.28   0.00231954 22.4396   332.331   22.5102   
12.2      4598.35   0.0023186 22.6153   332.155   22.5042   
12.3      4629.61   0.00232007 22.7945   331.976   22.5015   
12.4      4674.48   0.00231779 22.986    331.784   22.514    
12.5      4712.4    0.0023215 23.1696   331.601   22.5178   
12.6      4751.29   0.0023145 23.3604   331.41    22.5017   
12.7      4792.84   0.00233864 23.5531   331.217   22.4805   
12.8      4834.5    0.00243337 23.7375   331.033   22.5243   
12.9      4873.37   0.00243426 23.9298   330.84    22.5271   
13        4915.6    0.00243596 24.1228   330.647   22.5236   
13.1      4956.22   0.00243468 24.3013   330.469   22.5173   
13.2      4989.02   0.00243553 24.4752   330.295   22.5016   
13.3      5029.9    0.002435  24.6536   330.117   22.509    
13.4      5068.83   0.00243531 24.8311   329.939   22.5148   
13.5      5104.15   0.00243515 25.0133   329.757   22.5117   
13.6      5143.92   0.00243522 25.1954   329.575   22.5094   
13.7      5183.07   0.0024352 25.3871   329.383   22.517    
13.8      5221.46   0.00243517 25.5811   329.189   22.5111   
13.9      5266.6    0.00243517 25.7734   328.997   22.4968   
14        5305.09   0.00243517 25.9588   328.811   22.508    
14.1      5344.89   0.00243517 26.1301   328.64    22.4796   
14.2      5374.64   0.00243517 26.2908   328.479   22.4612   
14.3      5413.52   0.00243517 26.4663   328.304   22.4627   
14.4      5446.71   0.00243517 26.6488   328.121   22.4655   
14.5      5485.91   0.00243517 26.8346   327.936   22.4632   
14.6      5529.85   0.00243517 27.0308   327.739   22.4566   
14.7      5567.26   0.00243517 27.2151   327.555   22.4737   
14.8      5611.86   0.00243517 27.4044   327.366   22.4804   
14.9      5652.37   0.00243517 27.5884   327.182   22.4541   
15        5683.76   0.00243517 27.7672   327.003   22.4657   
15.1      5724.61   0.00243517 27.9585   326.812   22.4674   
15.2      5765.06   0.00243517 28.144    326.626   22.4558   
15.3      5804.52   0.00243517 28.334    326.436   22.4705   
15.4      5840.93   0.00243517 28.5241   326.246   22.4561   
15.5      5883.74   0.00243517 28.7158   326.054   22.4891   
15.6      5925.36   0.00243517 28.9091   325.861   22.5236   
15.7      5962.39   0.00243517 29.0959   325.674   22.518    
15.8      6004.55   0.00243517 29.2877   325.482   22.5119   
15.9      6042.18   0.00243517 29.4811   325.289   22.5126   
16        6084.82   0.00243517 29.676    325.094   22.5303   
16.1      6123.03   0.00243517 29.8733   324.897   22.5212   
16.2      6163.94   0.00243517 30.0689   324.701   22.5165   
16.3      6206.22   0.00243517 30.2614   324.509   22.5268   
16.4      6241.82   0.00243517 30.4554   324.315   22.5277   
16.5      6284.66   0.00243517 30.6553   324.115   22.5139   
16.6      6331.71   0.00243517 30.8486   323.922   22.4963   
16.7      6368.1    0.00243517 31.0313   323.739   22.5272   
16.8      6403.77   0.00243517 31.2232   323.547   22.4911   
16.9      6446.81   0.00243517 31.4177   323.352   22.4925   
17        6484.02   0.00243517 31.6135   323.157   22.4894   
17.1      6525.97   0.00243517 31.8153   322.955   22.5154   
17.2      6567.72   0.00243517 32.013    322.757   22.5137   
17.3      6606.64   0.00243517 32.2139   322.556   22.4803   
17.4      6650.47   0.00243517 32.4175   322.353   22.4962   
17.5      6687.82   0.00243517 32.6135   322.157   22.512    
17.6      6731.38   0.00243517 32.8199   321.95    22.5263   
17.7      6773.62   0.00243517 33.0183   321.752   22.5214   
17.8      6810.06   0.00243517 33.212    321.558   22.5271   
17.9      6853.37   0.00243517 33.4121   321.358   22.5083   
18        6896.85   0.00243517 33.6113   321.159   22.484    
18.1      6936.29   0.00243517 33.801    320.969   22.5048   
18.2      6973.98   0.00243517 33.9881   320.782   22.4902   
18.3      7010.32   0.00243517 34.1844   320.586   22.5283   
18.4      7050.82   0.00243517 34.3803   320.39    22.5158   
18.5      7092.5    0.00243517 34.5841   320.186   22.4947   
18.6      7129.91   0.00243517 34.7799   319.99    22.5246   
18.7      7168.94   0.00243517 34.9784   319.792   22.5281   
18.8      7208.33   0.00243517 35.1796   319.591   22.5089   
18.9      7247.5    0.00243517 35.3776   319.393   22.504    
19        7290.89   0.00243517 35.5822   319.188   22.5192   
19.1      7330.48   0.00243517 35.7773   318.993   22.4999   
19.2      7369.91   0.00243517 35.9777   318.792   22.4815   
19.3      7406.17   0.00243517 36.1728   318.597   22.4933   
19.4      7446.48   0.00243517 36.379    318.391   22.5075   
19.5      7484.75   0.00243517 36.588    318.182   22.4891   
19.6      7530.94   0.00243517 36.7898   317.98    22.4953   
19.7      7568.3    0.00243517 36.9877   317.782   22.4813   
19.8      7609.11   0.00243517 37.191    317.579   22.5094   
19.9      7651.74   0.00243517 37.3908   317.379   22.5052   
20        7690.91   0.00243517 37.5918   317.178   22.4892   
20.1      7732.36   0.00243517 37.7911   316.979   22.5125   
20.2      7766.11   0.00243517 37.9915   316.779   22.4911   
20.3      7809.07   0.00243517 38.191    316.579   22.4715   
20.4      7846.79   0.00243517 38.3864   316.384   22.4748   
20.5      7883.04   0.00243517 38.5831   316.187   22.5134   
20.6      7922.44   0.00243517 38.7869   315.983   22.5089   
20.7      7966.69   0.00243517 38.9956   315.774   22.5126   
20.8      8006.63   0.00243517 39.1937   315.576   22.4999   
20.9      8048.8    0.00243517 39.3962   315.374   22.4891   
21        8094.6    0.00243517 39.6014   315.169   22.5144   
21.1      8133.93   0.00243517 39.7931   314.977   22.5315   
21.2      8174.3    0.00243517 39.9923   314.778   22.508    
21.3      8214.2    0.00243517 40.1904   314.58    22.4852   
21.4      8259.8    0.00243517 40.3863   314.384   22.5008   
21.5      8299.97   0.00243517 40.5814   314.189   22.479    
21.6      8340.66   0.00243517 40.7731   313.997   22.489    
21.7      8384.7    0.00243517 40.9653   313.805   22.5064   
21.8      8426.43   0.00243517 41.1583   313.612   22.5249   
21.9      8467.53   0.00243517 41.3419   313.428   22.493    
22        8504.97   0.00243517 41.5219   313.248   22.4923   
22.1      8545.26   0.00243517 41.7063   313.064   22.5144   
22.2      8596.94   0.00243517 41.9003   312.87    22.5213   
22.3      8644.26   0.00243517 42.0868   312.683   22.5178   
22.4      8682.21   0.00243517 42.266    312.504   22.4704   
22.5      8726.57   0.00243517 42.4482   312.322   22.491    
22.6      8770.66   0.00243517 42.6245   312.146   22.5313   
22.7      8810.27   0.00243517 42.7999   311.97    22.5274   
22.8      8854.45   0.00243517 42.9688   311.801   22.5106   
22.9      8893.98   0.00243517 43.1408   311.629   22.5297   
23        8933.95   0.00243517 43.3074   311.463   22.5084   
23.1      8976.46   0.00243517 43.472    311.298   22.4958   
23.2      9019.31   0.00243517 43.6324   311.138   22.51     
23.3      9057.21   0.00243517 43.7826   310.988   22.4956   
23.4      9092.86   0.00243517 43.9303   310.84    22.5011   
23.5      9127.27   0.00243517 44.0787   310.691   22.4887   
23.6      9164.98   0.00243517 44.2397   310.53    22.5115   
23.7      9205.04   0.00243517 44.4048   310.365   22.4838   
23.8      9249.75   0.00243517 44.5626   310.208   22.5008   
23.9      9290.39   0.00243517 44.721    310.049   22.5249   
24        9327.96   0.00243517 44.8769   309.893   22.4828   
24.1      9367.62   0.00243517 45.0326   309.738   22.4935   
24.2      9405.54   0.00243517 45.1885   309.582   22.4888   
24.3      9455.19   0.00243517 45.3577   309.412   22.4772   
24.4      9502.32   0.00243517 45.5285   309.242   22.5016   
24.5      9540.63   0.00243517 45.6833   309.087   22.4796   
24.6      9580.53   0.00243517 45.8396   308.931   22.4699   
24.7      9619.74   0.00243517 45.9946   308.776   22.4861   
24.8      9659.44   0.00243517 46.1561   308.614   22.5168   
24.9      9700.23   0.00243517 46.3167   308.453   22.5332   
25        9745.05   0.00243517 46.4756   308.294   22.5203   
25.1      9788.68   0.00243517 46.6352   308.135   22.5086   
25.2      9830.64   0.00243517 46.7884   307.982   22.5174   
25.3      9869.39   0.00243517 46.9403   307.83    22.516    
25.4      9906.15   0.00243517 47.0878   307.682   22.5166   
25.5      9945.89   0.00243517 47.2378   307.532   22.5003   
25.6      9985.55   0.00243517 47.3908   307.379   22.5092   
25.7      10032.2   0.00243517 47.5444   307.226   22.5254   
25.8      10078     0.00243517 47.6897   307.08    22.4853   
25.9      10109.9   0.00243517 47.8237   306.946   22.4948   
26        10146     0.00243517 47.9684   306.802   22.4926   
26.1      10187.8   0.00243517 48.1193   306.651   22.522    
26.2      10227.8   0.00243517 48.2679   306.502   22.4884   
26.3      10269.8   0.00243517 48.4191   306.351   22.4883   
26.4      10309     0.00243517 48.5644   306.206   22.4917   
26.5      10349.1   0.00243517 48.7092   306.061   22.4815   
26.6      10390.4   0.00243517 48.8582   305.912   22.4911   
26.7      10431.1   0.00243517 49.0023   305.768   22.5071   
26.8      10473.6   0.00243517 49.1481   305.622   22.4935   
26.9      10509.7   0.00243517 49.2833   305.487   22.5      
27        10547.6   0.00243517 49.4294   305.341   22.5314   
27.1      10591.7   0.00243517 49.5772   305.193   22.4864   
27.2      10629.9   0.00243517 49.7239   305.046   22.5132   
27.3      10669.3   0.00243517 49.8698   304.9     22.5362   
27.4      10714     0.00243517 50.0178   304.752   22.5269   
27.5      10757.1   0.00243517 50.1671   304.603   22.5323   
27.6      10795.6   0.00243517 50.3053   304.465   22.5133   
27.7      10827.1   0.00243517 50.4418   304.328   22.4988   
27.8      10874.4   0.00243517 50.5922   304.178   22.5136   
27.9      10918.8   0.00243517 50.738    304.032   22.5028   
