**HEADER
RELEASE   Release of TYDEX-Format                 1.3
MEASID    Measurement ID                          cvert_2p7_13fz342_P06cam0_G07_dP00_110199_02
SUPPLIER  Data Supplier                           ika-fka / SteiReP / friederichs
DATE      Date                                    30/01/20
CLCKTIME  Clocktime                               14:07

**COMMENTS
------------------------------------
Bridgestone Potenza S001 MO 245/50R18 100W DOT4918
Vertical tyre stiffness on flat surface on transversal cleat at 6.1 deg camber
------------------------------------

**CONSTANTS
LOCATION  Location                      -         ika-fka, Aachen
MANUFACT  Tyre brand name               -         Bridgestone
IDENTITY  Commercial name               -         Potenza S001 MO
INFLPRES  Inflation Pressure            bar       2.7
TYREMASS  Tyre mass                     kg        11.95
OVALLDIA  Measured outside diameter     m         0.708
NOMDIAME  Nominal diameter of tyre      m         0.7022
NOMWIDTH  Nominal section width of tyre m         0.245
ASPRATIO  Nominal aspect ratio          -         0.5
SPEEDSYM  Speed symbol                  -         W
LOADIND   Load index                    -         100
TYROTIN   Tyre rot. inertia about YC    kgm2      1.233
RIMDIAME  Nominal rim diameter          m         0.4572
RIMWIDTH  Rim width                     m         0.2032
RIMROTIN  Rim rotational inertia        kgm2      0.386
TESTRIG   Test rig                      -         Stiffness Tyre Test Rig
CURVTRSF  Curvature of track surface    1/m       0
TRCKSURF  Surface of Track              -         Korund P80
TRCKCOND  Condition of Track Surface    -         dry
OBSTTYPE  Type of obstacle              -         G07
OBSTSURF  Surface of obstacle           -         Steel
CLEAT_H   Cleat height                  m         0.01
CLEAT_L   Cleat length                  m         0.02
CLT_BVED  Cleat bevel edge              m         0.002
CLT_ORI   Cleat orientation             deg       0
SLIPANGL  Slip angle                    deg       0
INCLANGL  Inclination angle             deg       6.1
LONGVEL   Longitudinal velocity         m/s       0

**MEASURCHANNELS
RUNTIME   Running Time                  s         1         0         0
FZW       Vertical Force                N         1         0         0
INCLANGL  Inclination angle             deg       1         0         0
TYREDEFW  Tyre deflection               mm        1         0         0
DSTGRWHC  Dist. ground - WHL. centre    mm        1         0         0
TRDTEMP   Tread Surface Temperature     deg C     1         0         0

**MEASURDATA
0         1.29664   6.11176   -0.0611953 353.583   22.4149   
0.1       2.17294   6.11176   0.355573  353.167   22.4537   
0.2       40.2931   6.11176   0.769436  352.753   22.4125   
0.3       77.9121   6.11176   1.16487   352.357   22.3303   
0.4       124.83    6.11176   1.55129   351.971   22.4332   
0.5       163.851   6.11176   1.92761   351.595   22.4225   
0.6       208.899   6.11176   2.31418   351.208   22.4079   
0.7       256.267   6.11176   2.69964   350.823   22.4211   
0.8       306.081   6.11176   3.08096   350.441   22.4272   
0.9       364.874   6.11176   3.45065   350.072   22.4532   
1         407.487   6.11176   3.80093   349.721   22.4492   
1.1       463.621   6.11176   4.15114   349.371   22.4211   
1.2       515.348   6.11176   4.47692   349.045   22.4363   
1.3       567.064   6.11176   4.78882   348.733   22.4551   
1.4       610.789   6.11176   5.09251   348.43    22.4588   
1.5       656.419   6.11176   5.38363   348.139   22.4724   
1.6       700.949   6.11176   5.67894   347.843   22.4648   
1.7       745.228   6.11176   5.96876   347.553   22.4744   
1.8       788.929   6.11176   6.24603   347.276   22.4141   
1.9       835.784   6.11176   6.51478   347.007   22.3691   
2         876.009   6.11176   6.771     346.751   22.3807   
2.1       919.763   6.11176   7.02662   346.496   22.4644   
2.2       966.343   6.11176   7.2787    346.243   22.4325   
2.3       1003.97   6.11176   7.5303    345.992   22.4492   
2.4       1048.52   6.11176   7.77766   345.745   22.4349   
2.5       1091.23   6.11176   8.03064   345.492   22.3746   
2.6       1137.73   6.11176   8.28062   345.242   22.4263   
2.7       1180.6    6.11176   8.51689   345.005   22.4199   
2.8       1220.92   6.11176   8.76205   344.76    22.4343   
2.9       1268.33   6.11176   8.99877   344.523   22.4657   
3         1311.03   6.11176   9.24043   344.282   22.4607   
3.1       1356.52   6.11176   9.49651   344.026   22.4634   
3.2       1403.49   6.11176   9.74481   343.777   22.4259   
3.3       1448.94   6.11176   9.99024   343.532   22.4358   
3.4       1497.79   6.11176   10.2145   343.308   22.4384   
3.5       1529.81   6.11176   10.4377   343.084   22.405    
3.6       1585.02   6.11176   10.6683   342.854   22.4031   
3.7       1622      6.11176   10.8832   342.639   22.3818   
3.8       1658.1    6.11176   11.1128   342.409   22.4169   
3.9       1704.06   6.11176   11.3417   342.18    22.4119   
4         1742.86   6.11176   11.5732   341.949   22.3882   
4.1       1784      6.11176   11.799    341.723   22.4123   
4.2       1821.68   6.11176   12.0139   341.508   22.3909   
4.3       1853.45   6.11176   12.2363   341.286   22.4425   
4.4       1898.66   6.11176   12.4737   341.048   22.4494   
4.5       1938.81   6.11176   12.6984   340.824   22.4646   
4.6       1982.72   6.11176   12.9311   340.591   22.4474   
4.7       2020.41   6.11176   13.1618   340.36    22.4291   
4.8       2065.55   6.11176   13.4022   340.12    22.4392   
4.9       2111.37   6.11176   13.637    339.885   22.4729   
5         2157.18   6.11176   13.8594   339.663   22.4464   
5.1       2194.52   6.11176   14.0807   339.441   22.4528   
5.2       2234.8    6.11176   14.3178   339.204   22.427    
5.3       2282.95   6.11176   14.5549   338.967   22.4463   
5.4       2323.08   6.11176   14.7804   338.742   22.4751   
5.5       2372.84   6.11176   15.0157   338.506   22.4224   
5.6       2419.26   6.11176   15.2346   338.288   22.3806   
5.7       2459.53   6.11176   15.4465   338.076   22.4427   
5.8       2494.98   6.11176   15.6534   337.869   22.4618   
5.9       2532.91   6.11176   15.8716   337.651   22.4604   
6         2584.44   6.11176   16.0941   337.428   22.4134   
6.1       2623.99   6.11176   16.3254   337.197   22.3757   
6.2       2668.29   6.11176   16.5588   336.963   22.4495   
6.3       2712.76   6.11176   16.793    336.729   22.4382   
6.4       2762.66   6.11176   17.0264   336.496   22.4563   
6.5       2804.52   6.11176   17.2444   336.278   22.4589   
6.6       2844.84   6.11176   17.4555   336.067   22.4724   
6.7       2889.11   6.11176   17.676    335.846   22.4686   
6.8       2929.85   6.11176   17.8912   335.631   22.47     
6.9       2970.76   6.11176   18.1015   335.421   22.4625   
7         3017.16   6.11176   18.3164   335.206   22.4635   
7.1       3051.79   6.11176   18.5237   334.998   22.4666   
7.2       3094.27   6.11176   18.737    334.785   22.4599   
7.3       3133.93   6.11176   18.9428   334.579   22.4567   
7.4       3178.98   6.11176   19.1611   334.361   22.4306   
7.5       3222.6    6.11176   19.3685   334.154   22.4476   
7.6       3254.9    6.11176   19.5715   333.951   22.4278   
7.7       3303      6.11176   19.7892   333.733   22.366    
7.8       3336.53   6.11176   19.9963   333.526   22.4243   
7.9       3381.32   6.11176   20.2197   333.302   22.4522   
8         3424.25   6.11176   20.4353   333.087   22.4491   
8.1       3458.59   6.11176   20.641    332.881   22.4281   
8.2       3503.13   6.11176   20.8698   332.652   22.421    
8.3       3545.78   6.11176   21.0939   332.428   22.4216   
8.4       3593.48   6.11176   21.3209   332.201   22.4491   
8.5       3632.98   6.11176   21.5371   331.985   22.3688   
8.6       3673.8    6.11176   21.7543   331.768   22.3412   
8.7       3721.85   6.11176   21.9811   331.541   22.4156   
8.8       3766.06   6.11176   22.1842   331.338   22.4315   
8.9       3797.46   6.11176   22.3881   331.134   22.4749   
9         3841.23   6.11176   22.6025   330.92    22.4606   
9.1       3886.54   6.11176   22.8179   330.704   22.4406   
9.2       3923.5    6.11176   23.0314   330.491   22.4022   
9.3       3967.94   6.11176   23.2527   330.269   22.4617   
9.4       4013.72   6.11176   23.4768   330.045   22.4705   
9.5       4057.38   6.11176   23.6906   329.832   22.454    
9.6       4099.77   6.11176   23.8979   329.624   22.4063   
9.7       4135.59   6.11176   24.1104   329.412   22.4514   
9.8       4184.42   6.11176   24.3239   329.198   22.4512   
9.9       4228.6    6.11176   24.5214   329.001   22.4648   
10        4260.49   6.11176   24.7126   328.81    22.4658   
10.1      4300.17   6.11176   24.9253   328.597   22.4587   
10.2      4337.08   6.11176   25.1394   328.383   22.4629   
10.3      4383.25   6.11176   25.3511   328.171   22.4519   
10.4      4424.63   6.11176   25.5488   327.973   22.4566   
10.5      4461.95   6.11176   25.7468   327.775   22.4529   
10.6      4499.91   6.11176   25.9463   327.576   22.4492   
10.7      4543.02   6.11176   26.152    327.37    22.4289   
10.8      4585.02   6.11176   26.354    327.168   22.3912   
10.9      4626.37   6.11176   26.5602   326.962   22.4705   
11        4665.62   6.11176   26.7646   326.758   22.4684   
11.1      4706.85   6.11176   26.9744   326.548   22.3905   
11.2      4746.63   6.11176   27.1744   326.348   22.3529   
11.3      4787.69   6.11176   27.381    326.141   22.4338   
11.4      4827.23   6.11176   27.5835   325.939   22.4395   
11.5      4866.03   6.11176   27.7832   325.739   22.4135   
11.6      4911.6    6.11176   27.9921   325.53    22.4362   
11.7      4941.46   6.11176   28.1954   325.327   22.4567   
11.8      4989.92   6.11176   28.4175   325.105   22.4102   
11.9      5028.84   6.11176   28.6224   324.9     22.4412   
12        5071.17   6.11176   28.8352   324.687   22.4014   
12.1      5117.33   6.11176   29.047    324.475   22.4219   
12.2      5158.24   6.11176   29.2457   324.277   22.3708   
12.3      5197.3    6.11176   29.4371   324.085   22.4129   
12.4      5229.52   6.11176   29.6381   323.884   22.4389   
12.5      5273.23   6.11176   29.8451   323.677   22.3594   
12.6      5314.12   6.11176   30.0546   323.468   22.4225   
12.7      5360.61   6.11176   30.2574   323.265   22.3788   
12.8      5397.01   6.11176   30.4557   323.067   22.4318   
12.9      5432.06   6.11176   30.6574   322.865   22.4604   
13        5471.34   6.11176   30.8678   322.654   22.4236   
13.1      5514.52   6.11176   31.0834   322.439   22.4771   
13.2      5556.2    6.11176   31.2898   322.232   22.4502   
13.3      5598.72   6.11176   31.5113   322.011   22.3876   
13.4      5642.49   6.11176   31.7262   321.796   22.4621   
13.5      5679.85   6.11176   31.9311   321.591   22.4178   
13.6      5721.33   6.11176   32.1498   321.372   22.3435   
13.7      5765.97   6.11176   32.3638   321.158   22.3714   
13.8      5806.26   6.11176   32.5683   320.954   22.3672   
13.9      5849.91   6.11176   32.7744   320.748   22.3671   
14        5892.95   6.11176   32.9808   320.541   22.4541   
14.1      5928.86   6.11176   33.1883   320.334   22.4378   
14.2      5967.88   6.11176   33.4031   320.119   22.3673   
14.3      6010.46   6.11176   33.6241   319.898   22.366    
14.4      6054.83   6.11176   33.8388   319.683   22.4116   
14.5      6100.39   6.11176   34.0595   319.463   22.4181   
14.6      6133.67   6.11176   34.2713   319.251   22.3967   
14.7      6179.01   6.11176   34.4895   319.033   22.3763   
14.8      6221.13   6.11176   34.7063   318.816   22.3089   
14.9      6267.66   6.11176   34.923    318.599   22.3629   
15        6308.52   6.11176   35.1346   318.388   22.4342   
15.1      6346.48   6.11176   35.3379   318.184   22.46     
15.2      6384.39   6.11176   35.5493   317.973   22.4338   
15.3      6425.8    6.11176   35.7636   317.759   22.3971   
15.4      6471.06   6.11176   35.9735   317.549   22.4273   
15.5      6512.46   6.11176   36.1846   317.338   22.3612   
15.6      6556.83   6.11176   36.3891   317.133   22.4495   
15.7      6593.36   6.11176   36.5975   316.925   22.461    
15.8      6638.66   6.11176   36.8047   316.717   22.4217   
15.9      6676.51   6.11176   37.0013   316.521   22.4082   
16        6722.41   6.11176   37.2094   316.313   22.3888   
16.1      6757.78   6.11176   37.4118   316.11    22.4299   
16.2      6799.36   6.11176   37.6187   315.903   22.4282   
16.3      6851.38   6.11176   37.8235   315.699   22.3781   
16.4      6889.65   6.11176   38.012    315.51    22.4371   
16.5      6929.69   6.11176   38.2106   315.312   22.3688   
16.6      6972.34   6.11176   38.4009   315.121   22.379    
16.7      7014.58   6.11176   38.5927   314.93    22.4597   
16.8      7057.02   6.11176   38.7773   314.745   22.3834   
16.9      7104.46   6.11176   38.9623   314.56    22.3511   
17        7141.32   6.11176   39.1402   314.382   22.3696   
17.1      7187.45   6.11176   39.3163   314.206   22.4497   
17.2      7226.75   6.11176   39.4946   314.028   22.4659   
17.3      7266.98   6.11176   39.677    313.845   22.4057   
17.4      7309.03   6.11176   39.8638   313.658   22.3422   
17.5      7354.91   6.11176   40.0504   313.472   22.3579   
17.6      7398.75   6.11176   40.2327   313.289   22.4366   
17.7      7441.49   6.11176   40.4053   313.117   22.4485   
17.8      7484.04   6.11176   40.5804   312.942   22.4305   
17.9      7517.57   6.11176   40.7532   312.769   22.397    
18        7569.59   6.11176   40.9435   312.579   22.3811   
18.1      7614.94   6.11176   41.112    312.41    22.4614   
18.2      7645.58   6.11176   41.2748   312.247   22.3913   
18.3      7678.35   6.11176   41.4369   312.085   22.4385   
18.4      7719.83   6.11176   41.6002   311.922   22.4109   
18.5      7763.62   6.11176   41.7593   311.763   22.4445   
18.6      7800.31   6.11176   41.9115   311.611   22.3654   
18.7      7840.95   6.11176   42.074    311.448   22.4257   
18.8      7880.83   6.11176   42.2359   311.286   22.3559   
18.9      7917.01   6.11176   42.4022   311.12    22.3714   
19        7967.16   6.11176   42.5709   310.951   22.4466   
19.1      8002.03   6.11176   42.7316   310.791   22.3953   
19.2      8043.23   6.11176   42.8915   310.631   22.4407   
19.3      8080.35   6.11176   43.0464   310.476   22.4308   
19.4      8116.19   6.11176   43.2075   310.315   22.3802   
19.5      8155.59   6.11176   43.3702   310.152   22.4095   
19.6      8201.3    6.11177   43.5377   309.985   22.4153   
19.7      8240.02   6.11176   43.6982   309.824   22.3416   
19.8      8274.05   6.11177   43.859    309.663   22.3621   
19.9      8325.69   6.11176   44.0258   309.496   22.3649   
20        8363.58   6.11177   44.177    309.345   22.3559   
20.1      8400.08   6.11176   44.3367   309.186   22.3531   
20.2      8446.75   6.11178   44.5048   309.017   22.4193   
20.3      8484.72   6.11189   44.6685   308.854   22.4021   
20.4      8529.59   6.11188   44.8368   308.685   22.4206   
20.5      8574.9    6.11189   45.0027   308.519   22.4383   
20.6      8616.21   6.11188   45.1721   308.35    22.4433   
20.7      8666.93   6.11188   45.3298   308.192   22.3232   
20.8      8695.46   6.11188   45.4728   308.049   22.4046   
20.9      8737.55   6.11188   45.6386   307.884   22.4379   
21        8783.64   6.11188   45.7976   307.725   22.4021   
21.1      8825      6.11188   45.9555   307.567   22.4759   
21.2      8863.76   6.11188   46.1062   307.416   22.4592   
21.3      8905.93   6.11188   46.266    307.256   22.4564   
21.4      8944.97   6.11188   46.4271   307.095   22.3886   
21.5      8984.1    6.11188   46.5832   306.939   22.4607   
21.6      9029.48   6.11188   46.7347   306.787   22.355    
21.7      9069.4    6.11188   46.8881   306.634   22.3838   
21.8      9112.62   6.11188   47.0449   306.477   22.4402   
21.9      9149.51   6.11188   47.1931   306.329   22.4038   
22        9190.14   6.11188   47.3535   306.169   22.3583   
22.1      9237      6.11188   47.5064   306.016   22.4096   
22.2      9275.5    6.11188   47.6542   305.868   22.4009   
22.3      9311.46   6.11188   47.8077   305.714   22.3926   
22.4      9352.75   6.11188   47.9636   305.559   22.389    
22.5      9397.39   6.11188   48.1207   305.402   22.4084   
22.6      9440.39   6.11188   48.2741   305.248   22.4874   
22.7      9480.12   6.11188   48.4188   305.103   22.437    
22.8      9519.3    6.11188   48.571    304.951   22.41     
22.9      9564.58   6.11188   48.7236   304.799   22.3554   
23        9598.27   6.11188   48.8704   304.652   22.4486   
23.1      9635.08   6.11188   49.0259   304.496   22.452    
23.2      9678.32   6.11188   49.1862   304.336   22.4074   
23.3      9724.45   6.11188   49.3397   304.182   22.4707   
23.4      9764.03   6.11188   49.4856   304.037   22.4405   
23.5      9809.93   6.11188   49.6521   303.87    22.4376   
23.6      9852.35   6.11188   49.8092   303.713   22.4656   
23.7      9893.71   6.11188   49.9677   303.554   22.3815   
23.8      9942.29   6.11188   50.1234   303.399   22.3566   
23.9      9974.36   6.11188   50.2669   303.255   22.3288   
24        10012.2   6.11188   50.4238   303.098   22.4215   
24.1      10059.7   6.11188   50.5815   302.941   22.4527   
24.2      10095.5   6.11188   50.7303   302.792   22.4404   
24.3      10140.4   6.11188   50.8895   302.633   22.4082   
24.4      10185.7   6.11188   51.0462   302.476   22.3798   
24.5      10223.8   6.11188   51.199    302.323   22.425    
24.6      10274.8   6.11188   51.3566   302.166   22.4686   
24.7      10314     6.11188   51.5042   302.018   22.4629   
24.8      10355.5   6.11188   51.6485   301.874   22.4676   
24.9      10393.5   6.11188   51.7828   301.739   22.419    
25        10428.2   6.11188   51.9285   301.594   22.3874   
25.1      10468.6   6.11188   52.0803   301.442   22.439    
25.2      10514.4   6.11188   52.2329   301.289   22.4354   
25.3      10549.8   6.11188   52.3828   301.139   22.4782   
25.4      10590.9   6.11188   52.5334   300.989   22.4407   
25.5      10636.5   6.11188   52.6852   300.837   22.4471   
25.6      10678.4   6.11188   52.8308   300.691   22.3838   
25.7      10721.9   6.11188   52.9738   300.548   22.4312   
25.8      10758.4   6.11188   53.1165   300.406   22.4002   
25.9      10796.5   6.11188   53.266    300.256   22.3877   
26        10837.9   6.11188   53.4128   300.109   22.4078   
26.1      10878.7   6.11188   53.5589   299.963   22.4713   
26.2      10915     6.11188   53.7089   299.813   22.3883   
26.3      10961     6.11188   53.8605   299.662   22.438    
26.4      11000.9   6.11188   54.0068   299.515   22.4304   
26.5      11043.1   6.11188   54.1471   299.375   22.4396   
26.6      11077.1   6.11188   54.283    299.239   22.4383   
26.7      11117.1   6.11188   54.4285   299.094   22.3519   
26.8      11156.4   6.11188   54.5739   298.948   22.4301   
26.9      11196.7   6.11188   54.7262   298.796   22.3663   
27        11245.4   6.11188   54.8749   298.647   22.4049   
27.1      11276.3   6.11188   55.0085   298.514   22.3712   
27.2      11320.2   6.11188   55.1588   298.363   22.3348   
27.3      11359.8   6.11188   55.299    298.223   22.4164   
27.4      11396.8   6.11188   55.4497   298.072   22.4209   
27.5      11445.4   6.11188   55.6036   297.919   22.3683   
27.6      11483.6   6.11188   55.7507   297.771   22.4302   
27.7      11526.1   6.11188   55.9036   297.619   22.3696   
27.8      11569.5   6.11188   56.0471   297.475   22.3891   
27.9      11610.4   6.11188   56.1928   297.329   22.3591   
28        11642.6   6.11188   56.3421   297.18    22.4108   
28.1      11692.6   6.11188   56.4894   297.033   22.422    
28.2      11730.3   6.11188   56.6365   296.886   22.4277   
28.3      11775.6   6.11188   56.782    296.74    22.4419   
