**HEADER
RELEASE   Release of TYDEX-Format                 1.3
MEASID    Measurement ID                          cvert_2p7_13fz342_P06cam0_110195_02
SUPPLIER  Data Supplier                           ika-fka / SteiReP / friederichs
DATE      Date                                    30/01/20
CLCKTIME  Clocktime                               14:07

**COMMENTS
------------------------------------
Bridgestone Potenza S001 MO 245/50R18 100W DOT4918
Vertical tyre stiffness on flat surface at 6.1 deg camber
------------------------------------

**CONSTANTS
LOCATION  Location                      -         ika-fka, Aachen
MANUFACT  Tyre brand name               -         Bridgestone
IDENTITY  Commercial name               -         Potenza S001 MO
INFLPRES  Inflation Pressure            bar       2.7
TYREMASS  Tyre mass                     kg        11.95
OVALLDIA  Measured outside diameter     m         0.708
NOMDIAME  Nominal diameter of tyre      m         0.7022
NOMWIDTH  Nominal section width of tyre m         0.245
ASPRATIO  Nominal aspect ratio          -         0.5
SPEEDSYM  Speed symbol                  -         W
LOADIND   Load index                    -         100
TYROTIN   Tyre rot. inertia about YC    kgm2      1.233
RIMDIAME  Nominal rim diameter          m         0.4572
RIMWIDTH  Rim width                     m         0.2032
RIMROTIN  Rim rotational inertia        kgm2      0.386
TESTRIG   Test rig                      -         Stiffness Tyre Test Rig
CURVTRSF  Curvature of track surface    1/m       0
TRCKSURF  Surface of Track              -         Korund P80
TRCKCOND  Condition of Track Surface    -         dry
SLIPANGL  Slip angle                    deg       0
INCLANGL  Inclination angle             deg       6.1
LONGVEL   Longitudinal velocity         m/s       0

**MEASURCHANNELS
RUNTIME   Running Time                  s         1         0         0
FZW       Vertical Force                N         1         0         0
INCLANGL  Inclination angle             deg       1         0         0
TYREDEFW  Tyre deflection               mm        1         0         0
DSTGRWHC  Dist. ground - WHL. centre    mm        1         0         0
TRDTEMP   Tread Surface Temperature     deg C     1         0         0

**MEASURDATA
0         -4.8041   6.11176   -0.0562109 353.903   22.1064   
0.1       2.43217   6.11176   0.0284579 353.819   22.1106   
0.2       4.81137   6.11176   0.117375  353.73    22.1141   
0.3       10.5552   6.11176   0.20675   353.64    22.1013   
0.4       14.2517   6.11176   0.300176  353.547   22.1065   
0.5       23.7628   6.11176   0.400533  353.447   22.1084   
0.6       33.1626   6.11176   0.50028   353.347   22.1114   
0.7       43.0669   6.11176   0.604309  353.243   22.0989   
0.8       56.4948   6.11176   0.700769  353.146   22.1088   
0.9       64.5873   6.11176   0.782887  353.064   22.1139   
1         77.1527   6.11176   0.902739  352.944   22.1089   
1.1       90.4981   6.11176   1.02766   352.82    22.1095   
1.2       104.623   6.11176   1.16133   352.686   22.1097   
1.3       125.112   6.11176   1.31092   352.536   22.1073   
1.4       138.727   6.11176   1.47445   352.373   22.1119   
1.5       163.264   6.11176   1.67562   352.172   22.1123   
1.6       191.894   6.11176   1.89189   351.955   22.1076   
1.7       219.65    6.11176   2.13573   351.711   22.1122   
1.8       249.344   6.11176   2.39107   351.456   22.108    
1.9       290.757   6.11176   2.65357   351.194   22.1103   
2         334.309   6.11176   2.9417    350.905   22.1057   
2.1       371.648   6.11176   3.22746   350.62    22.1085   
2.2       427.031   6.11176   3.51296   350.334   22.1092   
2.3       468.695   6.11176   3.77946   350.068   22.1099   
2.4       509.453   6.11176   4.04348   349.804   22.1154   
2.5       558.484   6.11176   4.30401   349.543   22.1115   
2.6       604.058   6.11176   4.55735   349.29    22.1074   
2.7       651.89    6.11176   4.8043    349.043   22.111    
2.8       696.048   6.11176   5.03323   348.814   22.1103   
2.9       736.156   6.11176   5.2566    348.591   22.1018   
3         769.595   6.11176   5.49755   348.35    22.1117   
3.1       822.513   6.11176   5.75038   348.097   22.1128   
3.2       870.365   6.11176   5.98183   347.865   22.1119   
3.3       907.327   6.11176   6.20717   347.64    22.1127   
3.4       951.481   6.11176   6.4386    347.409   22.11     
3.5       992.041   6.11176   6.66298   347.184   22.118    
3.6       1033.46   6.11176   6.89219   346.955   22.1077   
3.7       1077.27   6.11176   7.11887   346.728   22.1134   
3.8       1126.44   6.11176   7.34096   346.506   22.1039   
3.9       1166.82   6.11176   7.55551   346.292   22.1103   
4         1214.55   6.11176   7.76628   346.081   22.1064   
4.1       1252.65   6.11176   7.96002   345.887   22.1083   
4.2       1293.25   6.11176   8.16283   345.684   22.1107   
4.3       1337.53   6.11176   8.36953   345.478   22.1154   
4.4       1383.07   6.11176   8.55816   345.289   22.1057   
4.5       1417.57   6.11176   8.74835   345.099   22.1023   
4.6       1464.47   6.11176   8.9472    344.9     22.1071   
4.7       1506.05   6.11176   9.13251   344.715   22.1086   
4.8       1540.88   6.11176   9.3192    344.528   22.1097   
4.9       1588.02   6.11176   9.50753   344.34    22.1036   
5         1623.36   6.11176   9.68808   344.159   22.1068   
5.1       1664.77   6.11176   9.86902   343.978   22.112    
5.2       1706.23   6.11176   10.0424   343.805   22.1128   
5.3       1743.71   6.11176   10.2095   343.638   22.1051   
5.4       1773.64   6.11176   10.3831   343.464   22.1061   
5.5       1818.4    6.11176   10.5688   343.278   22.1062   
5.6       1863.15   6.11176   10.7434   343.104   22.1042   
5.7       1899.1    6.11176   10.9149   342.932   22.1088   
5.8       1941.71   6.11176   11.0974   342.75    22.1072   
5.9       1977.49   6.11176   11.271    342.576   22.1035   
6         2020.55   6.11176   11.4542   342.393   22.1113   
6.1       2059.07   6.11176   11.6374   342.21    22.109    
6.2       2098.58   6.11176   11.819    342.028   22.1163   
6.3       2142.03   6.11176   12.0081   341.839   22.1103   
6.4       2184.63   6.11176   12.1878   341.659   22.1185   
6.5       2223.51   6.11176   12.3652   341.482   22.1051   
6.6       2264.93   6.11176   12.5493   341.298   22.1082   
6.7       2308.16   6.11176   12.7294   341.118   22.1123   
6.8       2352.68   6.11176   12.9078   340.939   22.1047   
6.9       2393.4    6.11176   13.0795   340.768   22.1107   
7         2427.41   6.11176   13.251    340.596   22.1171   
7.1       2466.91   6.11176   13.4294   340.418   22.1129   
7.2       2503.7    6.11176   13.6121   340.235   22.1149   
7.3       2547.72   6.11176   13.8006   340.047   22.1121   
7.4       2592.1    6.11176   13.9852   339.862   22.1138   
7.5       2630.8    6.11176   14.1651   339.682   22.1161   
7.6       2675.08   6.11176   14.3455   339.502   22.1075   
7.7       2714.22   6.11176   14.5205   339.327   22.1118   
7.8       2755.8    6.11176   14.6983   339.149   22.114    
7.9       2799.68   6.11176   14.8741   338.973   22.1022   
8         2834.64   6.11176   15.041    338.806   22.1131   
8.1       2873.79   6.11176   15.2134   338.634   22.1025   
8.2       2921.44   6.11176   15.3866   338.461   22.1138   
8.3       2955.84   6.11176   15.5464   338.301   22.1124   
8.4       2989.01   6.11176   15.7164   338.131   22.1071   
8.5       3040.45   6.11176   15.8931   337.954   22.1112   
8.6       3085.29   6.11176   16.0514   337.796   22.115    
8.7       3120.74   6.11176   16.2101   337.637   22.1117   
8.8       3160.98   6.11176   16.3721   337.475   22.1127   
8.9       3195.47   6.11176   16.5386   337.309   22.1104   
9         3241.61   6.11176   16.7121   337.135   22.1095   
9.1       3282.95   6.11176   16.873    336.974   22.105    
9.2       3320.98   6.11176   17.047    336.8     22.1095   
9.3       3365.3    6.11176   17.2256   336.622   22.1139   
9.4       3411.5    6.11176   17.3967   336.45    22.1104   
9.5       3447.65   6.11176   17.558    336.289   22.1115   
9.6       3487.84   6.11176   17.7242   336.123   22.1099   
9.7       3533.53   6.11176   17.8954   335.952   22.106    
9.8       3573.75   6.11176   18.0514   335.796   22.1128   
9.9       3613.79   6.11176   18.2162   335.631   22.1112   
10        3652.04   6.11176   18.3796   335.468   22.1113   
10.1      3695.37   6.11176   18.5472   335.3     22.1128   
10.2      3740.55   6.11176   18.7106   335.137   22.1088   
10.3      3775.05   6.11176   18.8607   334.986   22.1053   
10.4      3818.1    6.11176   19.0205   334.827   22.1122   
10.5      3856.16   6.11176   19.1813   334.666   22.1159   
10.6      3901      6.11176   19.3377   334.51    22.1011   
10.7      3934.08   6.11176   19.4947   334.352   22.1135   
10.8      3978.75   6.11176   19.6594   334.188   22.1095   
10.9      4023.33   6.11176   19.8109   334.036   22.1031   
11        4052      6.11176   19.955    333.892   22.1085   
11.1      4091.27   6.11176   20.1198   333.727   22.1104   
11.2      4132.08   6.11176   20.2868   333.56    22.1086   
11.3      4177.93   6.11176   20.4544   333.393   22.1058   
11.4      4218.79   6.11176   20.621    333.226   22.1137   
11.5      4263.2    6.11176   20.7818   333.065   22.1059   
11.6      4304.36   6.11176   20.9485   332.899   22.1173   
11.7      4344.68   6.11176   21.1035   332.744   22.1108   
11.8      4389.17   6.11176   21.2606   332.587   22.1027   
11.9      4423.78   6.11176   21.4166   332.431   22.1102   
12        4460.47   6.11176   21.5764   332.271   22.1045   
12.1      4499.01   6.11176   21.7382   332.109   22.11     
12.2      4544.64   6.11176   21.9      331.947   22.1081   
12.3      4587.81   6.11176   22.0645   331.783   22.1153   
12.4      4626.56   6.11176   22.2194   331.628   22.1133   
12.5      4662.58   6.11176   22.3754   331.472   22.1107   
12.6      4704.92   6.11176   22.5408   331.306   22.1088   
12.7      4748.6    6.11176   22.6984   331.149   22.1165   
12.8      4793.96   6.11176   22.8524   330.995   22.1076   
12.9      4824.82   6.11176   23.0033   330.844   22.1166   
13        4867.97   6.11176   23.1596   330.688   22.1119   
13.1      4905.71   6.11176   23.3241   330.523   22.1027   
13.2      4952.46   6.11176   23.4838   330.363   22.1105   
13.3      4987.66   6.11176   23.6372   330.21    22.1049   
13.4      5024.84   6.11176   23.7962   330.051   22.1104   
13.5      5069.31   6.11176   23.9513   329.896   22.1071   
13.6      5106.63   6.11176   24.107    329.74    22.0968   
13.7      5148.91   6.11176   24.256    329.591   22.1046   
13.8      5185.43   6.11176   24.414    329.433   22.1098   
13.9      5223.93   6.11176   24.5726   329.275   22.111    
14        5268.13   6.11176   24.7338   329.113   22.1062   
14.1      5305.31   6.11176   24.8948   328.952   22.1146   
14.2      5347.57   6.11176   25.0539   328.793   22.1063   
14.3      5390.44   6.11176   25.2103   328.637   22.1175   
14.4      5426.94   6.11176   25.357    328.49    22.1118   
14.5      5461.33   6.11176   25.5048   328.342   22.1073   
14.6      5499.26   6.11176   25.6657   328.181   22.1176   
14.7      5537.92   6.11176   25.8258   328.021   22.1098   
14.8      5582.62   6.11176   25.9876   327.86    22.1058   
14.9      5626.42   6.11176   26.1388   327.708   22.1032   
15        5660.17   6.11176   26.2871   327.56    22.1026   
15.1      5702.22   6.11176   26.4421   327.405   22.1034   
15.2      5742.74   6.11176   26.5922   327.255   22.1064   
15.3      5777.48   6.11176   26.7529   327.094   22.1202   
15.4      5824.79   6.11176   26.9041   326.943   22.1134   
15.5      5858.99   6.11176   27.0474   326.8     22.1127   
15.6      5893.36   6.11176   27.1995   326.648   22.1087   
15.7      5934.96   6.11176   27.3592   326.488   22.1116   
15.8      5976.49   6.11176   27.5153   326.332   22.108    
15.9      6018.67   6.11176   27.6671   326.18    22.1037   
16        6056.47   6.11176   27.8226   326.025   22.1146   
16.1      6093.64   6.11176   27.9758   325.871   22.1152   
16.2      6140.92   6.11176   28.138    325.709   22.1066   
16.3      6181.07   6.11176   28.2899   325.557   22.1204   
16.4      6216.3    6.11176   28.4275   325.42    22.1079   
16.5      6249.69   6.11176   28.5668   325.28    22.1091   
16.6      6291.37   6.11176   28.711    325.136   22.1069   
16.7      6328.74   6.11176   28.8479   324.999   22.1037   
16.8      6362.58   6.11176   28.9933   324.854   22.1092   
16.9      6405.1    6.11176   29.1451   324.702   22.1123   
17        6449.84   6.11176   29.3008   324.546   22.106    
17.1      6482.83   6.11176   29.446    324.401   22.1058   
17.2      6526.36   6.11176   29.5976   324.25    22.1143   
17.3      6566.95   6.11176   29.7453   324.102   22.1131   
17.4      6602.65   6.11176   29.8884   323.959   22.109    
17.5      6643.07   6.11176   30.0377   323.809   22.105    
17.6      6687.08   6.11176   30.1822   323.665   22.1122   
17.7      6721.5    6.11176   30.3303   323.517   22.1039   
17.8      6762      6.11176   30.4786   323.369   22.1068   
17.9      6802.45   6.11176   30.6285   323.219   22.1008   
18        6847.59   6.11176   30.7781   323.069   22.1072   
18.1      6887.56   6.11176   30.923    322.924   22.1069   
18.2      6922.49   6.11176   31.0631   322.784   22.1133   
18.3      6960.33   6.11176   31.2135   322.634   22.1061   
18.4      7007.54   6.11176   31.3615   322.486   22.1008   
18.5      7039.65   6.11176   31.5036   322.344   22.0995   
18.6      7078.05   6.11176   31.6443   322.203   22.1099   
18.7      7121.96   6.11176   31.786    322.061   22.1092   
18.8      7155.11   6.11176   31.9239   321.923   22.1037   
18.9      7198.32   6.11176   32.0676   321.78    22.1092   
19        7235.07   6.11176   32.2073   321.64    22.1065   
19.1      7271.52   6.11176   32.3505   321.497   22.1052   
19.2      7311.8    6.11176   32.5056   321.342   22.1063   
19.3      7356.79   6.11176   32.6552   321.192   22.1102   
19.4      7393.13   6.11176   32.8028   321.044   22.106    
19.5      7430.4    6.11176   32.9493   320.898   22.1053   
19.6      7480.17   6.11176   33.0908   320.756   22.1053   
19.7      7516.12   6.11176   33.2304   320.617   22.1062   
19.8      7555.68   6.11176   33.3695   320.478   22.1029   
19.9      7591.56   6.11176   33.5088   320.338   22.1164   
20        7631.9    6.11176   33.6512   320.196   22.1072   
20.1      7671.23   6.11176   33.7971   320.05    22.1073   
20.2      7703.93   6.11176   33.9418   319.905   22.1105   
20.3      7745.03   6.11176   34.0937   319.754   22.1067   
20.4      7790.91   6.11176   34.2519   319.595   22.1046   
20.5      7834.51   6.11176   34.397    319.45    22.0986   
20.6      7873.39   6.11176   34.5473   319.3     22.1018   
20.7      7917.86   6.11176   34.7051   319.142   22.1077   
20.8      7963.17   6.11176   34.8574   318.99    22.1095   
20.9      8001.96   6.11177   35.0095   318.838   22.1059   
21        8043.33   6.11176   35.1546   318.693   22.1077   
21.1      8084.18   6.11177   35.3011   318.546   22.1105   
21.2      8124.05   6.11176   35.4438   318.403   22.1088   
21.3      8160.85   6.11177   35.5844   318.263   22.1057   
21.4      8206.17   6.11176   35.7336   318.114   22.1104   
21.5      8246.24   6.11177   35.8727   317.974   22.1097   
21.6      8284.73   6.11176   36.0165   317.831   22.1056   
21.7      8321.24   6.11184   36.1542   317.693   22.1117   
21.8      8358.22   6.11189   36.296    317.551   22.1113   
21.9      8404.76   6.11188   36.4483   317.399   22.1064   
22        8440.33   6.11189   36.5874   317.26    22.1112   
22.1      8479.96   6.11188   36.7306   317.117   22.112    
22.2      8520.28   6.11189   36.8799   316.967   22.1026   
22.3      8565.37   6.11188   37.0239   316.823   22.1103   
22.4      8603.93   6.11188   37.171    316.676   22.1091   
22.5      8643.97   6.11188   37.316    316.531   22.104    
22.6      8685.13   6.11188   37.4684   316.379   22.1069   
22.7      8729.08   6.11188   37.6199   316.227   22.1152   
22.8      8772.33   6.11188   37.7715   316.076   22.1081   
22.9      8812.26   6.11188   37.9179   315.929   22.1059   
23        8852.13   6.11188   38.0608   315.786   22.1077   
23.1      8893.46   6.11188   38.2094   315.638   22.1152   
23.2      8937.23   6.11188   38.3539   315.493   22.106    
23.3      8970.68   6.11188   38.4917   315.355   22.1166   
23.4      9010.3    6.11188   38.6389   315.208   22.1172   
23.5      9057.93   6.11188   38.785    315.062   22.1018   
23.6      9099.48   6.11188   38.9301   314.917   22.109    
23.7      9139.33   6.11188   39.0794   314.768   22.1083   
23.8      9180.09   6.11188   39.2221   314.625   22.1121   
23.9      9215.6    6.11188   39.3658   314.481   22.1084   
24        9260.58   6.11188   39.5164   314.331   22.1074   
24.1      9308.34   6.11188   39.6565   314.191   22.1141   
24.2      9337.15   6.11188   39.7941   314.053   22.1084   
24.3      9379.44   6.11188   39.9416   313.906   22.1105   
24.4      9425.84   6.11188   40.0853   313.762   22.1077   
24.5      9458.2    6.11188   40.2171   313.63    22.1009   
24.6      9496.45   6.11188   40.3419   313.505   22.1066   
24.7      9531.49   6.11188   40.4547   313.392   22.1195   
24.8      9561.16   6.11188   40.5814   313.266   22.1064   
24.9      9601.18   6.11188   40.7162   313.131   22.1096   
25        9642.64   6.11188   40.8575   312.99    22.113    
25.1      9678.13   6.11188   40.994    312.853   22.1138   
25.2      9718.5    6.11188   41.1316   312.716   22.1112   
25.3      9757.21   6.11188   41.2764   312.571   22.1086   
25.4      9796.13   6.11188   41.4168   312.43    22.113    
25.5      9841.33   6.11188   41.5657   312.281   22.1097   
25.6      9883.86   6.11188   41.7147   312.132   22.104    
25.7      9922.55   6.11188   41.8636   311.984   22.1108   
25.8      9969.98   6.11188   42.0201   311.827   22.119    
25.9      10009.1   6.11188   42.1652   311.682   22.1188   
26        10055.9   6.11188   42.3025   311.545   22.1087   
26.1      10090.6   6.11188   42.4387   311.408   22.1086   
26.2      10131.4   6.11188   42.5825   311.265   22.1143   
26.3      10169     6.11188   42.7298   311.117   22.1089   
26.4      10211.3   6.11188   42.8767   310.97    22.1108   
26.5      10258.2   6.11188   43.0222   310.825   22.1183   
26.6      10298.2   6.11188   43.169    310.678   22.112    
26.7      10342.4   6.11188   43.3207   310.527   22.1131   
26.8      10385     6.11188   43.4647   310.383   22.1055   
26.9      10426.8   6.11188   43.6087   310.239   22.1099   
27        10465.9   6.11188   43.7582   310.089   22.1133   
27.1      10514.5   6.11188   43.8993   309.948   22.1151   
27.2      10548.2   6.11188   44.0408   309.806   22.1116   
27.3      10584.8   6.11188   44.1854   309.662   22.1065   
27.4      10635.7   6.11188   44.334    309.513   22.1041   
27.5      10675.1   6.11188   44.4659   309.381   22.1064   
27.6      10713.1   6.11188   44.5888   309.258   22.1021   
27.7      10740.2   6.11188   44.7093   309.138   22.1071   
27.8      10779.5   6.11188   44.8403   309.007   22.1132   
27.9      10822.8   6.11188   44.9723   308.875   22.1145   
28        10856.8   6.11188   45.1013   308.746   22.1133   
28.1      10895.2   6.11188   45.2421   308.605   22.1135   
28.2      10936.7   6.11188   45.3825   308.465   22.109    
28.3      10973.1   6.11188   45.5172   308.33    22.1115   
28.4      11016.4   6.11188   45.6618   308.185   22.1143   
28.5      11056.4   6.11188   45.8021   308.045   22.1109   
28.6      11095.6   6.11188   45.9415   307.906   22.1167   
28.7      11142.5   6.11188   46.0943   307.753   22.1089   
28.8      11181.6   6.11188   46.2392   307.608   22.1081   
28.9      11223.3   6.11188   46.3824   307.465   22.1051   
