**HEADER
RELEASE   Release of TYDEX-Format                 1.3
MEASID    Measurement ID                          cvert_2p7_13fz342_P00cam0_G07_dP45_110196_02
SUPPLIER  Data Supplier                           ika-fka / SteiReP / friederichs
DATE      Date                                    30/01/20
CLCKTIME  Clocktime                               14:07

**COMMENTS
------------------------------------
Bridgestone Potenza S001 MO 245/50R18 100W DOT4918
Vertical tyre stiffness on flat surface on oblique cleat at 0 deg camber
------------------------------------

**CONSTANTS
LOCATION  Location                      -         ika-fka, Aachen
MANUFACT  Tyre brand name               -         Bridgestone
IDENTITY  Commercial name               -         Potenza S001 MO
INFLPRES  Inflation Pressure            bar       2.7
TYREMASS  Tyre mass                     kg        11.95
OVALLDIA  Measured outside diameter     m         0.708
NOMDIAME  Nominal diameter of tyre      m         0.7022
NOMWIDTH  Nominal section width of tyre m         0.245
ASPRATIO  Nominal aspect ratio          -         0.5
SPEEDSYM  Speed symbol                  -         W
LOADIND   Load index                    -         100
TYROTIN   Tyre rot. inertia about YC    kgm2      1.233
RIMDIAME  Nominal rim diameter          m         0.4572
RIMWIDTH  Rim width                     m         0.2032
RIMROTIN  Rim rotational inertia        kgm2      0.386
TESTRIG   Test rig                      -         Stiffness Tyre Test Rig
CURVTRSF  Curvature of track surface    1/m       0
TRCKSURF  Surface of Track              -         Korund P80
TRCKCOND  Condition of Track Surface    -         dry
OBSTTYPE  Type of obstacle              -         G07
OBSTSURF  Surface of obstacle           -         Steel
CLEAT_H   Cleat height                  m         0.01
CLEAT_L   Cleat length                  m         0.02
CLT_BVED  Cleat bevel edge              m         0.002
CLT_ORI   Cleat orientation             deg       45
SLIPANGL  Slip angle                    deg       0
INCLANGL  Inclination angle             deg       0
LONGVEL   Longitudinal velocity         m/s       0

**MEASURCHANNELS
RUNTIME   Running Time                  s         1         0         0
FZW       Vertical Force                N         1         0         0
INCLANGL  Inclination angle             deg       1         0         0
TYREDEFW  Tyre deflection               mm        1         0         0
DSTGRWHC  Dist. ground - WHL. centre    mm        1         0         0
TRDTEMP   Tread Surface Temperature     deg C     1         0         0

**MEASURDATA
0         -6.0101   0.00231921 -0.155715 354.244   22.4858   
0.1       1.66796   0.00231921 0.0432149 354.046   22.4616   
0.2       19.6945   0.00231921 0.241954  353.847   22.4617   
0.3       49.688    0.00231921 0.410599  353.678   22.4636   
0.4       65.2055   0.00231921 0.546957  353.542   22.4608   
0.5       84.8694   0.00231921 0.68589   353.403   22.4751   
0.6       103.653   0.00231921 0.813159  353.276   22.4892   
0.7       117.59    0.00231921 0.951149  353.138   22.463    
0.8       141.68    0.00231921 1.09063   352.998   22.4844   
0.9       157.07    0.00231921 1.25971   352.829   22.4581   
1         184.985   0.00231921 1.46918   352.62    22.4829   
1.1       215.589   0.00231921 1.69818   352.391   22.5212   
1.2       253.234   0.00231921 1.94815   352.141   22.4745   
1.3       287.402   0.00231921 2.19875   351.89    22.4532   
1.4       329.846   0.00231921 2.45512   351.634   22.4577   
1.5       368.081   0.00231921 2.71629   351.372   22.4553   
1.6       414.997   0.00231921 2.97279   351.116   22.4749   
1.7       458.689   0.00231921 3.22662   350.862   22.4813   
1.8       500.829   0.00231921 3.47865   350.61    22.4725   
1.9       541.378   0.00231921 3.71784   350.371   22.5063   
2         587.041   0.00231921 3.95923   350.13    22.4715   
2.1       625.215   0.00231921 4.19907   349.89    22.5164   
2.2       673.187   0.00231921 4.43336   349.655   22.4802   
2.3       713.025   0.00231921 4.65507   349.434   22.4897   
2.4       751.651   0.00231921 4.8874    349.201   22.466    
2.5       796.015   0.00231921 5.12325   348.966   22.4725   
2.6       841.027   0.00231921 5.35573   348.733   22.4582   
2.7       886.006   0.00231921 5.58551   348.503   22.4549   
2.8       924.765   0.00231921 5.8032    348.286   22.454    
2.9       960.046   0.00231921 6.0181    348.071   22.4543   
3         1005.1    0.00231921 6.24625   347.842   22.4567   
3.1       1047.22   0.00231921 6.47184   347.617   22.4541   
3.2       1083.01   0.00231921 6.68936   347.399   22.4845   
3.3       1125.33   0.00231921 6.91921   347.17    22.468    
3.4       1167.9    0.00231921 7.14742   346.941   22.46     
3.5       1209.96   0.00231921 7.38196   346.707   22.4597   
3.6       1252.36   0.00231921 7.61564   346.473   22.4584   
3.7       1296.34   0.00231921 7.8485    346.24    22.4547   
3.8       1338.07   0.00231921 8.07412   346.015   22.4618   
3.9       1378.81   0.00231921 8.29749   345.791   22.4803   
4         1416.77   0.00231921 8.51736   345.571   22.4631   
4.1       1464.56   0.00231921 8.74351   345.345   22.4606   
4.2       1502.41   0.00231921 8.96287   345.126   22.468    
4.3       1541.05   0.00231921 9.17633   344.912   22.4887   
4.4       1585.03   0.00231921 9.4044    344.684   22.4718   
4.5       1630.23   0.00231921 9.63424   344.455   22.4823   
4.6       1672.89   0.00231921 9.85903   344.23    22.4623   
4.7       1716.66   0.00231921 10.086    344.003   22.4575   
4.8       1760.37   0.00231921 10.3027   343.786   22.4586   
4.9       1797.66   0.00231921 10.5124   343.576   22.4598   
5         1839.74   0.00231921 10.727    343.362   22.4706   
5.1       1880.58   0.00231921 10.9436   343.145   22.4628   
5.2       1923.22   0.00231921 11.1596   342.929   22.4603   
5.3       1965.46   0.00231921 11.3735   342.715   22.4994   
5.4       2007.29   0.00231921 11.5794   342.509   22.4741   
5.5       2044.44   0.00231921 11.7753   342.313   22.4548   
5.6       2080.37   0.00231921 11.9668   342.122   22.4716   
5.7       2119.08   0.00231921 12.17     341.919   22.4529   
5.8       2157.17   0.00231921 12.3774   341.711   22.4801   
5.9       2201.2    0.00231921 12.5883   341.5     22.4798   
6         2241.65   0.00231921 12.7916   341.297   22.4551   
6.1       2278.27   0.00231921 12.9922   341.097   22.4914   
6.2       2318.98   0.00231921 13.2037   340.885   22.4579   
6.3       2359.41   0.00231921 13.4127   340.676   22.4645   
6.4       2396.23   0.00231921 13.6135   340.475   22.4616   
6.5       2434.96   0.00231921 13.8281   340.261   22.4635   
6.6       2484.53   0.00231921 14.0522   340.037   22.4729   
6.7       2524.67   0.00231921 14.2636   339.825   22.45     
6.8       2563.65   0.00231921 14.4794   339.609   22.4655   
6.9       2610.83   0.00231921 14.6921   339.397   22.5011   
7         2652.3    0.00231921 14.9036   339.185   22.4651   
7.1       2691.49   0.00231921 15.1044   338.984   22.4772   
7.2       2723.44   0.00231921 15.3105   338.778   22.4606   
7.3       2767.14   0.00231921 15.5249   338.564   22.4751   
7.4       2815.58   0.00231921 15.7384   338.35    22.4583   
7.5       2852.68   0.00231921 15.9492   338.14    22.4602   
7.6       2894.01   0.00231921 16.17     337.919   22.4557   
7.7       2940      0.00231921 16.3932   337.696   22.4749   
7.8       2985.49   0.00231921 16.6086   337.48    22.4663   
7.9       3026.2    0.00231921 16.8129   337.276   22.4609   
8         3066.99   0.00231921 17.0185   337.07    22.4574   
8.1       3104.39   0.00231921 17.224    336.865   22.4559   
8.2       3143.32   0.00231921 17.4369   336.652   22.4549   
8.3       3191.72   0.00231921 17.6478   336.441   22.4785   
8.4       3232.52   0.00231921 17.8475   336.241   22.5105   
8.5       3270.97   0.00231921 18.0424   336.046   22.4653   
8.6       3308.29   0.00231921 18.2296   335.859   22.4499   
8.7       3345.38   0.00231921 18.4159   335.673   22.4715   
8.8       3380.89   0.00231921 18.6012   335.488   22.4491   
8.9       3421.68   0.00231921 18.8032   335.286   22.4522   
9         3458.68   0.00231921 19.0026   335.086   22.4721   
9.1       3502.51   0.00231921 19.2028   334.886   22.476    
9.2       3540.97   0.00231921 19.405    334.684   22.4747   
9.3       3576.05   0.00231921 19.6034   334.485   22.485    
9.4       3616.11   0.00231921 19.8049   334.284   22.4611   
9.5       3656.74   0.00231921 20.0102   334.079   22.4662   
9.6       3701.16   0.00231921 20.2183   333.87    22.4605   
9.7       3738.04   0.00231921 20.4227   333.666   22.4614   
9.8       3783.71   0.00231921 20.6333   333.455   22.4517   
9.9       3824.96   0.00231921 20.8354   333.253   22.4556   
10        3860.03   0.00231921 21.0334   333.055   22.4998   
10.1      3901.3    0.00231921 21.2411   332.848   22.47     
10.2      3943.16   0.00231921 21.448    332.641   22.4677   
10.3      3982.98   0.00231921 21.6518   332.437   22.4665   
10.4      4022.86   0.00231921 21.8555   332.233   22.4659   
10.5      4064.68   0.00231921 22.0619   332.027   22.4628   
10.6      4106.78   0.00231921 22.2691   331.82    22.4488   
10.7      4147.4    0.00231912 22.4775   331.611   22.4634   
10.8      4186.22   0.00231929 22.6806   331.408   22.501    
10.9      4228.61   0.00231897 22.8908   331.198   22.4739   
11        4265.43   0.00231952 23.0948   330.994   22.4859   
11.1      4307.39   0.00231864 23.3027   330.786   22.4648   
11.2      4353.68   0.00232   23.5032   330.586   22.464    
11.3      4387.68   0.00231789 23.7015   330.387   22.4588   
11.4      4430.53   0.00232133 23.9076   330.181   22.4543   
11.5      4468.58   0.0023148 24.1049   329.984   22.4775   
11.6      4507.46   0.00233769 24.3002   329.789   22.4989   
11.7      4547.92   0.00243243 24.4896   329.599   22.4786   
11.8      4584.29   0.00243456 24.672    329.417   22.4562   
11.9      4623.11   0.0024358 24.8665   329.222   22.465    
12        4661.28   0.00243478 25.0632   329.026   22.4647   
12.1      4702.01   0.00243547 25.2628   328.826   22.4639   
12.2      4745.52   0.00243504 25.4633   328.625   22.4644   
12.3      4793.42   0.00243528 25.6542   328.435   22.4527   
12.4      4837.06   0.00243516 25.847    328.242   22.4559   
12.5      4873.95   0.00243521 26.028    328.061   22.4602   
12.6      4918.1    0.0024352 26.2123   327.876   22.4737   
12.7      4956.08   0.00243517 26.3814   327.707   22.449    
12.8      4991.78   0.00243517 26.5496   327.539   22.457    
12.9      5038.4    0.00243517 26.7273   327.361   22.4527   
13        5077.4    0.00243517 26.8948   327.194   22.4724   
13.1      5110.8    0.00243517 27.0702   327.019   22.5214   
13.2      5154.17   0.00243517 27.2486   326.84    22.469    
13.3      5197.2    0.00243517 27.4281   326.661   22.458    
13.4      5238.44   0.00243517 27.5991   326.49    22.4465   
13.5      5275.11   0.00243517 27.7693   326.319   22.4607   
13.6      5314.68   0.00243517 27.9419   326.147   22.4603   
13.7      5360.98   0.00243517 28.1207   325.968   22.4606   
13.8      5402.16   0.00243517 28.2958   325.793   22.4732   
13.9      5445.38   0.00243517 28.4656   325.623   22.4487   
14        5482.66   0.00243517 28.6381   325.451   22.4824   
14.1      5528.07   0.00243517 28.8081   325.281   22.4784   
14.2      5570.32   0.00243517 28.9769   325.112   22.4468   
14.3      5613.36   0.00243517 29.1459   324.943   22.4655   
14.4      5656.25   0.00243517 29.3027   324.786   22.4647   
14.5      5693.63   0.00243517 29.4609   324.628   22.4683   
14.6      5734.19   0.00243517 29.6245   324.464   22.4485   
14.7      5778.48   0.00243517 29.7853   324.303   22.4584   
14.8      5822.59   0.00243517 29.949    324.14    22.4507   
14.9      5860.34   0.00243517 30.1056   323.983   22.4554   
15        5896.68   0.00243517 30.265    323.824   22.4676   
15.1      5941.33   0.00243517 30.4298   323.659   22.4629   
15.2      5985.23   0.00243517 30.5873   323.501   22.46     
15.3      6028.78   0.00243517 30.7441   323.345   22.4595   
15.4      6067.15   0.00243517 30.8896   323.199   22.4644   
15.5      6103.93   0.00243517 31.0435   323.045   22.467    
15.6      6145.7    0.00243517 31.1952   322.894   22.4532   
15.7      6182.24   0.00243517 31.3404   322.748   22.4552   
15.8      6224.05   0.00243517 31.4886   322.6     22.457    
15.9      6263.15   0.00243517 31.6248   322.464   22.4604   
16        6299.87   0.00243517 31.7674   322.321   22.4545   
16.1      6339.73   0.00243517 31.9134   322.175   22.4561   
16.2      6376.01   0.00243517 32.0605   322.028   22.4675   
16.3      6413.02   0.00243517 32.2154   321.873   22.47     
16.4      6455.2    0.00243517 32.3702   321.719   22.4634   
16.5      6493.97   0.00243517 32.5222   321.567   22.4523   
16.6      6534.9    0.00243517 32.6776   321.411   22.4561   
16.7      6586.15   0.00243517 32.8324   321.256   22.4543   
16.8      6620.67   0.00243517 32.9759   321.113   22.4715   
16.9      6655.15   0.00243517 33.1235   320.965   22.4662   
17        6701.68   0.00243517 33.2821   320.807   22.4642   
17.1      6745.95   0.00243517 33.4265   320.662   22.4715   
17.2      6778.16   0.00243517 33.5658   320.523   22.4586   
17.3      6821.51   0.00243517 33.7163   320.372   22.4571   
17.4      6860.8    0.00243517 33.8645   320.224   22.4582   
17.5      6899.51   0.00243517 34.015    320.074   22.4662   
17.6      6943.11   0.00243517 34.1635   319.925   22.458    
17.7      6983.38   0.00243517 34.3059   319.783   22.4753   
17.8      7018.75   0.00243517 34.4404   319.648   22.4697   
17.9      7055.32   0.00243517 34.586    319.503   22.4501   
18        7098.5    0.00243517 34.7347   319.354   22.4607   
18.1      7133.77   0.00243517 34.8808   319.208   22.4517   
18.2      7176.5    0.00243517 35.0342   319.055   22.4527   
18.3      7219.73   0.00243517 35.1782   318.911   22.4667   
18.4      7261.53   0.00243517 35.3265   318.762   22.4501   
18.5      7299.54   0.00243517 35.471    318.618   22.4604   
18.6      7338.01   0.00243517 35.6132   318.476   22.467    
18.7      7381.92   0.00243517 35.7585   318.33    22.4644   
18.8      7415.91   0.00243517 35.897    318.192   22.4642   
18.9      7461.07   0.00243517 36.0383   318.05    22.4604   
19        7496.64   0.00243517 36.1775   317.911   22.4563   
19.1      7532.44   0.00243517 36.319    317.77    22.4603   
19.2      7577.59   0.00243517 36.4692   317.62    22.4632   
19.3      7612.39   0.00243517 36.6054   317.483   22.4569   
19.4      7655.25   0.00243517 36.7518   317.337   22.4665   
19.5      7693.25   0.00243517 36.8962   317.193   22.4656   
19.6      7732.27   0.00243517 37.0423   317.046   22.4572   
19.7      7778.69   0.00243517 37.1853   316.903   22.4783   
19.8      7809.48   0.00243517 37.317    316.772   22.4876   
19.9      7849.27   0.00243517 37.4596   316.629   22.4661   
20        7890.07   0.00243517 37.6036   316.485   22.4523   
20.1      7933.18   0.00243517 37.7449   316.344   22.452    
20.2      7970.82   0.00243517 37.8853   316.203   22.4674   
20.3      8011.9    0.00243517 38.0294   316.059   22.4579   
20.4      8049.19   0.00243517 38.1671   315.922   22.471    
20.5      8089.97   0.00243517 38.308    315.781   22.4763   
20.6      8131.64   0.00243517 38.4532   315.636   22.4563   
20.7      8170.2    0.00243517 38.5932   315.496   22.4664   
20.8      8211.86   0.00243517 38.7333   315.355   22.4576   
20.9      8249.38   0.00243517 38.8768   315.212   22.4571   
21        8287.95   0.00243517 39.0207   315.068   22.463    
21.1      8330.35   0.00243517 39.1692   314.92    22.4678   
21.2      8373.38   0.00243517 39.3131   314.776   22.4894   
21.3      8411.81   0.00243517 39.4543   314.634   22.4674   
21.4      8457.27   0.00243517 39.6019   314.487   22.4481   
21.5      8499.75   0.00243517 39.739    314.35    22.467    
21.6      8535.64   0.00243517 39.8719   314.217   22.4606   
21.7      8569.85   0.00243517 40.0056   314.083   22.4587   
21.8      8608.57   0.00243517 40.152    313.937   22.4529   
21.9      8651.88   0.00243517 40.2975   313.791   22.4642   
22        8694.25   0.00243517 40.4414   313.647   22.4629   
22.1      8733.4    0.00243517 40.584    313.505   22.4613   
22.2      8771.8    0.00243517 40.7219   313.367   22.4582   
22.3      8814.44   0.00243517 40.8698   313.219   22.4509   
22.4      8858.45   0.00243517 41.0117   313.077   22.4618   
22.5      8893.64   0.00243517 41.1441   312.945   22.4708   
22.6      8932.35   0.00243517 41.288    312.801   22.4569   
22.7      8975.59   0.00243517 41.4313   312.657   22.457    
22.8      9013.38   0.00243517 41.566    312.523   22.4567   
22.9      9053.66   0.00243517 41.7053   312.383   22.4851   
23        9097.14   0.00243517 41.8478   312.241   22.4622   
23.1      9135.81   0.00243517 41.9855   312.103   22.4573   
23.2      9173.32   0.00243517 42.1185   311.97    22.4603   
23.3      9212.03   0.00243517 42.2583   311.83    22.4551   
23.4      9251.44   0.00243517 42.3984   311.69    22.4549   
23.5      9295.66   0.00243517 42.542    311.547   22.4677   
23.6      9335.62   0.00243517 42.6799   311.409   22.459    
23.7      9375.48   0.00243517 42.8114   311.277   22.4458   
23.8      9410.64   0.00243517 42.9407   311.148   22.4697   
23.9      9451.63   0.00243517 43.0668   311.022   22.463    
24        9494.28   0.00243517 43.2006   310.888   22.4617   
24.1      9520.72   0.00243517 43.3314   310.757   22.4469   
24.2      9565.47   0.00243517 43.4729   310.616   22.4589   
24.3      9603.61   0.00243517 43.606    310.483   22.4609   
24.4      9642.64   0.00243517 43.745    310.344   22.4537   
24.5      9687.62   0.00243517 43.8844   310.204   22.4596   
24.6      9727.65   0.00243517 44.0221   310.067   22.4539   
24.7      9766.78   0.00243517 44.1603   309.928   22.4801   
24.8      9808.08   0.00243517 44.305    309.784   22.4605   
24.9      9851.04   0.00243517 44.447    309.642   22.4488   
25        9887.86   0.00243517 44.5837   309.505   22.4614   
25.1      9932.7    0.00243517 44.7216   309.367   22.453    
25.2      9972.33   0.00243517 44.8591   309.23    22.4627   
25.3      10009     0.00243517 45.0009   309.088   22.4595   
25.4      10053     0.00243517 45.1443   308.944   22.467    
25.5      10092.7   0.00243517 45.2823   308.806   22.4715   
25.6      10133.4   0.00243517 45.4163   308.672   22.4703   
25.7      10172     0.00243517 45.5546   308.534   22.4745   
25.8      10215.7   0.00243517 45.6928   308.396   22.4581   
25.9      10254.1   0.00243517 45.8315   308.257   22.4647   
26        10296.7   0.00243517 45.9712   308.118   22.4564   
26.1      10337.3   0.00243517 46.1071   307.982   22.471    
26.2      10373.3   0.00243517 46.246    307.843   22.463    
26.3      10417.9   0.00243517 46.3869   307.702   22.4688   
26.4      10455.4   0.00243517 46.5252   307.564   22.4814   
26.5      10499.7   0.00243517 46.6675   307.421   22.4555   
26.6      10534.2   0.00243517 46.8015   307.287   22.4644   
26.7      10578.4   0.00243517 46.9436   307.145   22.456    
26.8      10628.1   0.00243517 47.0888   307       22.4601   
26.9      10662.6   0.00243517 47.2154   306.873   22.4599   
27        10700.9   0.00243517 47.3546   306.734   22.4789   
27.1      10741.7   0.00243517 47.4918   306.597   22.4787   
27.2      10782.2   0.00243517 47.6316   306.457   22.4576   
27.3      10823.7   0.00243517 47.7665   306.322   22.4719   
27.4      10858.6   0.00243508 47.8947   306.194   22.4629   
27.5      10898.2   0.00243526 48.0362   306.053   22.4687   
27.6      10939.9   0.00243493 48.1707   305.918   22.4823   
27.7      10985.3   0.00243548 48.3127   305.776   22.4534   
27.8      11027.1   0.0024346 48.4534   305.635   22.4549   
27.9      11063.6   0.00243597 48.5955   305.493   22.45     
